%OpenBCI Raw EEG Data
%
%Sample Rate = 250.0 Hz
%First Column = SampleIndex
%Last Column = Timestamp 
%Other Columns = EEG data in microvolts followed by Accel Data (in G) interleaved with Aux Data
0, 0.00, 0.00, 0.00, 0.00, 0.00, 0.00, 0.00, 0.00, 0.000, 0.000, 0.000, 18:39:40.002
1, -3542.62, 31058.66, -10831.41, -12485.48, -4698.92, -1814.00, 135659.97, 115754.77, -0.046, 0.986, 0.098, 18:39:40.482
2, -3332.13, 31072.86, -10888.65, -12468.85, -4573.75, -1690.57, 135686.66, 115803.11, 0.000, 0.000, 0.000, 18:39:40.482
3, -3319.17, 31089.58, -10954.48, -12452.87, -4508.73, -1723.30, 135717.73, 115858.25, 0.000, 0.000, 0.000, 18:39:40.482
4, -3530.79, 31081.82, -10937.47, -12458.33, -4612.53, -1834.72, 135708.67, 115838.67, 0.000, 0.000, 0.000, 18:39:40.482
5, -3703.55, 31056.70, -10861.58, -12478.40, -4723.35, -1851.86, 135669.19, 115763.08, 0.000, 0.000, 0.000, 18:39:40.482
6, -3599.14, 31044.22, -10821.06, -12484.81, -4688.26, -1710.67, 135651.14, 115728.41, 0.000, 0.000, 0.000, 18:39:40.483
7, -3361.64, 31059.47, -10874.41, -12468.83, -4559.78, -1568.35, 135678.80, 115777.77, 0.000, 0.000, 0.000, 18:39:40.483
8, -3321.94, 31075.56, -10942.83, -12452.11, -4494.29, -1595.18, 135709.28, 115832.37, -0.044, 0.984, 0.068, 18:39:40.483
9, -3509.29, 31066.60, -10924.62, -12456.11, -4591.83, -1706.98, 135698.98, 115811.73, 0.000, 0.000, 0.000, 18:39:40.483
10, -3661.13, 31041.86, -10849.47, -12476.63, -4704.17, -1761.59, 135659.66, 115736.55, 0.000, 0.000, 0.000, 18:39:40.483
11, -3548.85, 31029.29, -10812.90, -12483.18, -4679.94, -1661.49, 135641.02, 115701.41, 0.000, 0.000, 0.000, 18:39:40.483
12, -3328.53, 31042.41, -10862.97, -12464.61, -4554.91, -1542.02, 135665.97, 115748.05, 0.000, 0.000, 0.000, 18:39:40.483
13, -3322.88, 31060.01, -10930.85, -12448.83, -4489.64, -1574.55, 135697.41, 115804.02, 0.000, 0.000, 0.000, 18:39:40.483
14, -3525.34, 31053.77, -10914.89, -12454.37, -4588.50, -1692.47, 135689.45, 115786.19, 0.000, 0.000, 0.000, 18:39:40.484
15, -3697.87, 31029.96, -10830.87, -12474.22, -4698.18, -1731.46, 135650.75, 115711.96, 0.000, 0.000, 0.000, 18:39:40.484
16, -3627.71, 31019.73, -10781.59, -12481.62, -4675.92, -1621.46, 135634.34, 115679.15, 0.000, 0.000, 0.000, 18:39:40.484
17, -3410.00, 31036.13, -10833.49, -12465.14, -4549.52, -1499.62, 135662.59, 115729.55, -0.044, 0.982, 0.062, 18:39:40.484
18, -3376.03, 31052.90, -10900.66, -12446.95, -4479.27, -1536.88, 135693.28, 115785.34, 0.000, 0.000, 0.000, 18:39:40.484
19, -3558.91, 31045.23, -10872.92, -12449.85, -4580.68, -1659.48, 135684.09, 115767.08, 0.000, 0.000, 0.000, 18:39:40.484
20, -3704.65, 31020.87, -10780.51, -12468.12, -4683.45, -1681.79, 135645.05, 115693.07, 0.000, 0.000, 0.000, 18:39:40.484
21, -3598.16, 31009.83, -10730.09, -12473.08, -4661.70, -1543.07, 135627.63, 115659.97, 0.000, 0.000, 0.000, 18:39:40.484
22, -3369.32, 31026.48, -10767.51, -12455.13, -4532.17, -1401.63, 135655.95, 115711.45, 0.000, 0.000, 0.000, 18:39:40.484
23, -3327.41, 31045.86, -10825.33, -12438.12, -4458.19, -1429.60, 135689.30, 115770.70, 0.000, 0.000, 0.000, 18:39:40.485
24, -3509.36, 31040.58, -10804.30, -12442.03, -4578.22, -1549.02, 135682.33, 115755.45, 0.000, 0.000, 0.000, 18:39:40.485
25, -3662.94, 31018.03, -10726.80, -12461.14, -4671.89, -1584.00, 135645.31, 115684.47, 0.000, 0.000, 0.000, 18:39:40.485
26, -3558.42, 31006.38, -10683.69, -12465.32, -4649.10, -1450.32, 135627.78, 115652.15, 0.000, 0.000, 0.000, 18:39:40.485
27, -3340.09, 31021.81, -10735.74, -12445.90, -4517.15, -1321.44, 135654.94, 115703.22, -0.050, 0.984, 0.062, 18:39:40.485
28, -3314.85, 31040.94, -10803.02, -12427.88, -4433.83, -1359.95, 135688.00, 115763.10, 0.000, 0.000, 0.000, 18:39:40.485
29, -3506.74, 31037.81, -10782.15, -12432.98, -4555.84, -1476.31, 135683.59, 115751.32, 0.000, 0.000, 0.000, 18:39:40.485
30, -3662.53, 31016.58, -10694.04, -12452.31, -4649.63, -1514.26, 135648.17, 115682.59, 0.000, 0.000, 0.000, 18:39:40.486
31, -3558.78, 31003.59, -10648.30, -12454.53, -4634.54, -1386.34, 135629.73, 115649.71, 0.000, 0.000, 0.000, 18:39:40.486
32, -3337.32, 31022.52, -10701.21, -12438.30, -4510.38, -1265.65, 135660.75, 115705.01, 0.000, 0.000, 0.000, 18:39:40.486
33, -3315.77, 31043.46, -10762.14, -12421.62, -4425.44, -1311.53, 135696.11, 115767.62, 0.000, 0.000, 0.000, 18:39:40.486
34, -3511.55, 31036.09, -10743.59, -12422.34, -4538.25, -1433.46, 135687.89, 115752.28, 0.000, 0.000, 0.000, 18:39:40.486
35, -3671.03, 31015.08, -10664.29, -12442.21, -4633.65, -1471.01, 135652.91, 115684.24, 0.000, 0.000, 0.000, 18:39:40.486
36, -3565.82, 31004.24, -10620.14, -12446.59, -4620.73, -1345.26, 135636.38, 115653.35, 0.000, 0.000, 0.000, 18:39:40.486
37, -3339.46, 31022.50, -10670.23, -12429.31, -4494.49, -1226.08, 135666.56, 115707.89, -0.056, 0.990, 0.062, 18:39:40.486
38, -3306.47, 31040.56, -10732.46, -12409.71, -4407.18, -1271.57, 135699.02, 115767.68, 0.000, 0.000, 0.000, 18:39:40.487
39, -3502.85, 31033.99, -10716.77, -12411.59, -4523.01, -1390.55, 135691.69, 115753.27, 0.000, 0.000, 0.000, 18:39:40.487
40, -3679.25, 31012.55, -10644.19, -12431.15, -4624.17, -1422.38, 135656.11, 115684.53, 0.000, 0.000, 0.000, 18:39:40.487
41, -3595.59, 31003.12, -10598.66, -12436.29, -4612.33, -1278.61, 135640.91, 115654.85, 0.000, 0.000, 0.000, 18:39:40.487
42, -3373.88, 31019.84, -10652.84, -12417.22, -4478.78, -1146.29, 135669.70, 115707.91, 0.000, 0.000, 0.000, 18:39:40.487
43, -3334.72, 31039.44, -10724.66, -12399.32, -4393.66, -1198.17, 135703.98, 115769.45, 0.000, 0.000, 0.000, 18:39:40.487
44, -3509.54, 31034.19, -10707.09, -12402.22, -4518.63, -1330.02, 135698.06, 115756.57, 0.000, 0.000, 0.000, 18:39:40.488
45, -3655.20, 31010.94, -10624.03, -12419.84, -4620.64, -1370.65, 135661.06, 115686.50, 0.000, 0.000, 0.000, 18:39:40.488
46, -3548.81, 31002.25, -10581.63, -12426.59, -4604.84, -1250.20, 135646.67, 115657.71, 0.000, 0.000, 0.000, 18:39:40.488
47, -3332.82, 31018.59, -10629.28, -12407.48, -4478.08, -1130.19, 135675.08, 115710.26, -0.060, 0.988, 0.054, 18:39:40.488
48, -3303.01, 31038.30, -10690.86, -12389.33, -4394.08, -1179.17, 135709.30, 115771.98, 0.000, 0.000, 0.000, 18:39:40.489
49, -3487.92, 31033.63, -10679.31, -12392.72, -4521.29, -1306.82, 135704.05, 115759.75, 0.000, 0.000, 0.000, 18:39:40.489
50, -3647.29, 31010.43, -10600.85, -12411.16, -4631.15, -1363.14, 135667.34, 115689.67, 0.000, 0.000, 0.000, 18:39:40.489
51, -3542.15, 30999.23, -10553.08, -12416.08, -4612.26, -1250.02, 135650.77, 115658.38, 0.000, 0.000, 0.000, 18:39:40.489
52, -3298.54, 31017.20, -10598.79, -12398.96, -4487.81, -1141.01, 135681.13, 115712.65, 0.000, 0.000, 0.000, 18:39:40.489
53, -3262.59, 31039.11, -10662.05, -12383.11, -4410.02, -1192.69, 135717.55, 115776.49, 0.000, 0.000, 0.000, 18:39:40.489
54, -3469.19, 31035.06, -10643.81, -12386.93, -4532.64, -1326.04, 135712.61, 115764.66, 0.000, 0.000, 0.000, 18:39:40.490
55, -3642.53, 31011.57, -10548.82, -12404.66, -4629.20, -1368.40, 135675.52, 115694.28, 0.000, 0.000, 0.000, 18:39:40.490
56, -3542.48, 31000.30, -10491.82, -12409.26, -4603.77, -1264.80, 135658.95, 115663.05, 0.000, 0.000, 0.000, 18:39:40.490
57, -3331.66, 31016.11, -10536.97, -12389.53, -4475.31, -1160.59, 135686.80, 115714.93, -0.058, 0.988, 0.054, 18:39:40.490
58, -3322.52, 31036.16, -10601.19, -12371.44, -4395.96, -1211.42, 135721.22, 115776.96, 0.000, 0.000, 0.000, 18:39:40.491
59, -3526.30, 31031.82, -10579.88, -12375.24, -4499.76, -1339.23, 135716.70, 115765.56, 0.000, 0.000, 0.000, 18:39:40.491
60, -3663.09, 31007.97, -10487.04, -12392.75, -4601.55, -1372.02, 135679.55, 115695.30, 0.000, 0.000, 0.000, 18:39:40.491
61, -3544.63, 30998.02, -10440.37, -12399.05, -4590.98, -1240.83, 135664.31, 115665.45, 0.000, 0.000, 0.000, 18:39:40.491
62, -3305.80, 31016.49, -10487.73, -12382.46, -4470.55, -1110.64, 135695.25, 115720.72, 0.000, 0.000, 0.000, 18:39:40.491
63, -3272.92, 31035.46, -10553.08, -12363.69, -4397.19, -1166.25, 135729.11, 115782.32, 0.000, 0.000, 0.000, 18:39:40.491
64, -3476.79, 31030.95, -10536.66, -12367.09, -4504.35, -1306.50, 135724.30, 115771.10, 0.000, 0.000, 0.000, 18:39:40.492
65, -3624.38, 31008.15, -10450.25, -12385.79, -4609.49, -1353.04, 135688.39, 115702.33, 0.000, 0.000, 0.000, 18:39:40.492
66, -3507.77, 30997.46, -10400.07, -12391.87, -4589.01, -1219.53, 135672.83, 115672.28, -0.050, 0.984, 0.056, 18:39:40.492
67, -3277.64, 31012.80, -10442.87, -12372.67, -4458.88, -1069.08, 135700.92, 115724.81, 0.000, 0.000, 0.000, 18:39:40.520
68, -3255.89, 31032.33, -10503.62, -12354.50, -4376.23, -1092.04, 135735.64, 115787.77, 0.000, 0.000, 0.000, 18:39:40.520
69, -3478.78, 31029.32, -10489.41, -12359.15, -4486.58, -1211.31, 135732.39, 115778.48, 0.000, 0.000, 0.000, 18:39:40.520
70, -3649.59, 31005.47, -10408.13, -12376.54, -4591.36, -1237.77, 135695.73, 115709.14, 0.000, 0.000, 0.000, 18:39:40.520
71, -3546.13, 30993.33, -10365.42, -12380.63, -4569.84, -1107.31, 135678.86, 115677.88, 0.000, 0.000, 0.000, 18:39:40.521
72, -3319.12, 31011.97, -10405.68, -12363.71, -4437.74, -980.91, 135710.20, 115733.82, 0.000, 0.000, 0.000, 18:39:40.521
73, -3286.85, 31032.00, -10470.94, -12345.25, -4354.05, -1018.64, 135745.47, 115797.59, 0.000, 0.000, 0.000, 18:39:40.521
74, -3492.97, 31027.19, -10465.73, -12348.42, -4468.49, -1152.66, 135741.27, 115787.42, 0.000, 0.000, 0.000, 18:39:40.521
75, -3653.55, 31003.86, -10389.83, -12366.75, -4575.76, -1189.36, 135705.50, 115718.87, 0.000, 0.000, 0.000, 18:39:40.521
76, -3543.67, 30992.71, -10353.24, -12372.07, -4557.16, -1051.36, 135689.66, 115688.76, -0.054, 0.980, 0.050, 18:39:40.521
77, -3301.31, 31009.07, -10413.03, -12353.94, -4434.05, -919.66, 135718.95, 115742.72, 0.000, 0.000, 0.000, 18:39:40.521
78, -3255.42, 31029.58, -10492.15, -12336.91, -4358.81, -963.07, 135755.02, 115807.36, 0.000, 0.000, 0.000, 18:39:40.521
79, -3448.94, 31024.27, -10490.61, -12339.82, -4470.66, -1078.11, 135750.36, 115796.88, 0.000, 0.000, 0.000, 18:39:40.522
80, -3615.31, 31001.55, -10419.53, -12358.99, -4573.79, -1093.49, 135715.36, 115729.26, 0.000, 0.000, 0.000, 18:39:40.522
81, -3510.43, 30990.02, -10376.82, -12364.43, -4559.26, -941.54, 135699.69, 115698.98, 0.000, 0.000, 0.000, 18:39:40.522
82, -3275.36, 31007.26, -10432.07, -12347.08, -4437.69, -809.20, 135730.38, 115753.96, 0.000, 0.000, 0.000, 18:39:40.522
83, -3208.08, 31026.48, -10498.84, -12328.60, -4358.75, -874.49, 135765.70, 115817.84, 0.000, 0.000, 0.000, 18:39:40.522
84, -3376.05, 31021.70, -10475.90, -12331.97, -4467.60, -1041.26, 135761.94, 115808.48, 0.000, 0.000, 0.000, 18:39:40.522
85, -3521.65, 30998.85, -10384.71, -12351.15, -4577.73, -1088.13, 135727.20, 115741.04, 0.000, 0.000, 0.000, 18:39:40.522
86, -3416.15, 30985.62, -10328.27, -12354.93, -4550.97, -942.37, 135710.02, 115709.23, -0.062, 0.982, 0.056, 18:39:40.522
87, -3191.81, 31002.38, -10372.04, -12336.49, -4416.41, -779.54, 135740.44, 115764.46, 0.000, 0.000, 0.000, 18:39:40.522
88, -3151.89, 31023.88, -10435.60, -12318.47, -4335.17, -789.35, 135778.27, 115831.72, 0.000, 0.000, 0.000, 18:39:40.522
89, -3347.53, 31018.70, -10418.30, -12320.17, -4457.50, -887.34, 135774.48, 115822.45, 0.000, 0.000, 0.000, 18:39:40.523
90, -3521.96, 30993.78, -10342.31, -12338.70, -4579.00, -923.48, 135738.05, 115752.93, 0.000, 0.000, 0.000, 18:39:40.523
91, -3450.01, 30979.81, -10298.72, -12343.57, -4553.68, -773.28, 135720.38, 115720.25, 0.000, 0.000, 0.000, 18:39:40.523
92, -3239.10, 30996.17, -10343.36, -12325.38, -4418.74, -592.54, 135750.75, 115775.57, 0.000, 0.000, 0.000, 18:39:40.523
93, -3219.66, 31018.92, -10413.10, -12309.26, -4342.32, -612.37, 135790.16, 115844.59, 0.000, 0.000, 0.000, 18:39:40.523
94, -3443.22, 31011.95, -10404.45, -12310.33, -4452.22, -735.64, 135784.89, 115834.09, 0.000, 0.000, 0.000, 18:39:40.523
95, -3623.49, 30984.75, -10327.22, -12326.72, -4569.88, -755.11, 135746.34, 115762.27, 0.000, 0.000, 0.000, 18:39:40.523
96, -3510.74, 30973.77, -10287.03, -12334.92, -4541.05, -602.80, 135731.95, 115732.70, -0.064, 0.984, 0.058, 18:39:40.524
97, -3271.56, 30989.78, -10339.49, -12316.62, -4401.84, -428.26, 135762.03, 115787.33, 0.000, 0.000, 0.000, 18:39:40.524
98, -3230.77, 31010.70, -10412.69, -12299.11, -4328.12, -443.97, 135799.78, 115854.23, 0.000, 0.000, 0.000, 18:39:40.524
99, -3438.50, 31005.11, -10400.74, -12302.11, -4438.97, -549.50, 135796.05, 115844.93, 0.000, 0.000, 0.000, 18:39:40.524
100, -3626.37, 30977.28, -10323.71, -12318.54, -4560.76, -553.30, 135756.91, 115772.22, 0.000, 0.000, 0.000, 18:39:40.524
101, -3529.52, 30964.07, -10285.74, -12325.22, -4531.21, -411.07, 135740.11, 115739.56, 0.000, 0.000, 0.000, 18:39:40.524
102, -3280.83, 30979.99, -10341.39, -12308.35, -4393.93, -296.43, 135770.06, 115793.68, 0.000, 0.000, 0.000, 18:39:40.524
103, -3233.38, 31000.10, -10411.62, -12290.64, -4318.98, -362.99, 135806.77, 115859.39, 0.000, 0.000, 0.000, 18:39:40.525
104, -3432.13, 30994.80, -10403.11, -12294.17, -4440.24, -533.20, 135802.88, 115849.65, 0.000, 0.000, 0.000, 18:39:40.525
105, -3609.31, 30968.77, -10325.39, -12313.22, -4568.85, -593.57, 135765.50, 115778.21, 0.000, 0.000, 0.000, 18:39:40.525
106, -3532.49, 30954.44, -10280.68, -12319.41, -4540.38, -468.67, 135747.34, 115743.68, -0.062, 0.988, 0.050, 18:39:40.525
107, -3296.52, 30971.02, -10323.91, -12302.69, -4402.33, -321.66, 135777.64, 115797.81, 0.000, 0.000, 0.000, 18:39:40.525
108, -3244.40, 30990.49, -10377.67, -12283.62, -4328.33, -354.19, 135813.27, 115862.37, 0.000, 0.000, 0.000, 18:39:40.525
109, -3433.61, 30984.37, -10356.88, -12286.26, -4421.00, -504.79, 135808.61, 115851.84, 0.000, 0.000, 0.000, 18:39:40.525
110, -3584.35, 30959.74, -10265.98, -12306.29, -4547.78, -565.81, 135772.00, 115781.14, 0.000, 0.000, 0.000, 18:39:40.525
111, -3476.01, 30945.79, -10210.92, -12312.35, -4529.58, -436.26, 135753.56, 115746.29, 0.000, 0.000, 0.000, 18:39:40.525
112, -3247.57, 30962.82, -10253.71, -12295.65, -4394.29, -287.58, 135783.58, 115800.05, 0.000, 0.000, 0.000, 18:39:40.525
113, -3221.24, 30983.12, -10319.38, -12276.92, -4311.20, -301.01, 135819.61, 115864.69, 0.000, 0.000, 0.000, 18:39:40.526
114, -3419.24, 30977.48, -10309.32, -12279.38, -4415.05, -398.58, 135814.97, 115854.07, 0.000, 0.000, 0.000, 18:39:40.526
115, -3581.80, 30953.43, -10232.43, -12299.56, -4540.40, -443.79, 135778.44, 115783.46, -0.060, 0.990, 0.048, 18:39:40.526
116, -3465.32, 30938.66, -10180.03, -12304.32, -4512.93, -318.58, 135758.92, 115747.41, 0.000, 0.000, 0.000, 18:39:40.526
117, -3219.37, 30955.09, -10228.47, -12286.98, -4376.11, -192.34, 135788.09, 115800.36, 0.000, 0.000, 0.000, 18:39:40.526
118, -3185.03, 30977.95, -10291.59, -12270.82, -4298.37, -265.63, 135826.19, 115867.48, 0.000, 0.000, 0.000, 18:39:40.526
119, -3380.30, 30973.28, -10267.97, -12273.57, -4412.37, -422.36, 135822.09, 115857.83, 0.000, 0.000, 0.000, 18:39:40.527
120, -3555.98, 30948.45, -10185.11, -12292.21, -4536.49, -465.10, 135784.77, 115786.66, 0.000, 0.000, 0.000, 18:39:40.527
121, -3453.95, 30933.99, -10139.47, -12297.01, -4507.43, -313.93, 135765.70, 115751.25, 0.000, 0.000, 0.000, 18:39:40.962
122, -3200.95, 30951.53, -10189.42, -12280.43, -4365.61, -126.13, 135796.19, 115805.63, 0.000, 0.000, 0.000, 18:39:40.963
123, -3160.92, 30972.54, -10269.98, -12261.67, -4286.10, -135.41, 135832.64, 115871.46, 0.000, 0.000, 0.000, 18:39:40.963
124, -3383.76, 30970.15, -10271.41, -12266.28, -4403.72, -268.11, 135830.88, 115864.64, 0.000, 0.000, 0.000, 18:39:40.963
125, -3577.64, 30944.63, -10194.56, -12284.16, -4530.61, -343.79, 135793.13, 115793.45, -0.060, 0.990, 0.046, 18:39:40.963
126, -3483.23, 30930.25, -10150.06, -12288.85, -4505.80, -219.00, 135774.19, 115758.34, 0.000, 0.000, 0.000, 18:39:40.963
127, -3242.43, 30949.39, -10199.46, -12273.37, -4370.50, -84.87, 135806.17, 115814.60, 0.000, 0.000, 0.000, 18:39:40.964
128, -3193.82, 30968.97, -10261.93, -12252.60, -4293.19, -141.06, 135841.20, 115879.48, 0.000, 0.000, 0.000, 18:39:40.964
129, -3384.93, 30965.19, -10240.92, -12255.01, -4406.91, -297.50, 135838.44, 115871.77, 0.000, 0.000, 0.000, 18:39:40.964
130, -3553.46, 30940.49, -10151.76, -12273.28, -4532.33, -352.73, 135801.81, 115801.73, 0.000, 0.000, 0.000, 18:39:40.964
131, -3464.74, 30929.58, -10095.21, -12281.03, -4500.90, -208.12, 135786.33, 115770.41, 0.000, 0.000, 0.000, 18:39:40.965
132, -3235.08, 30945.95, -10136.34, -12261.97, -4355.62, -26.58, 135815.59, 115824.08, 0.000, 0.000, 0.000, 18:39:40.965
133, -3189.46, 30966.20, -10195.39, -12241.11, -4268.56, -38.15, 135851.64, 115890.15, 0.000, 0.000, 0.000, 18:39:40.965
134, -3383.29, 30963.47, -10180.91, -12244.55, -4380.36, -187.91, 135850.23, 115884.13, 0.000, 0.000, 0.000, 18:39:40.966
135, -3559.96, 30939.24, -10103.12, -12263.44, -4506.65, -258.48, 135814.14, 115814.87, -0.060, 0.984, 0.046, 18:39:40.966
136, -3451.29, 30926.56, -10053.72, -12269.70, -4481.68, -133.98, 135796.92, 115781.61, 0.000, 0.000, 0.000, 18:39:40.966
137, -3206.11, 30942.23, -10104.91, -12250.77, -4342.70, 12.14, 135825.67, 115834.67, 0.000, 0.000, 0.000, 18:39:40.967
138, -3173.14, 30962.51, -10175.12, -12230.72, -4259.62, -22.78, 135861.91, 115900.61, 0.000, 0.000, 0.000, 18:39:40.967
139, -3384.66, 30960.29, -10173.22, -12235.21, -4371.31, -177.79, 135861.05, 115895.09, 0.000, 0.000, 0.000, 18:39:40.967
140, -3562.58, 30936.71, -10102.65, -12255.39, -4502.27, -259.15, 135825.72, 115826.42, 0.000, 0.000, 0.000, 18:39:40.967
141, -3449.01, 30923.01, -10054.19, -12261.65, -4483.18, -141.96, 135807.77, 115792.27, 0.000, 0.000, 0.000, 18:39:40.967
142, -3182.35, 30940.27, -10104.24, -12245.16, -4345.89, 3.40, 135838.20, 115846.74, 0.000, 0.000, 0.000, 18:39:40.968
143, -3130.50, 30960.38, -10179.36, -12225.78, -4265.45, -53.13, 135874.22, 115912.43, 0.000, 0.000, 0.000, 18:39:40.968
144, -3317.16, 30955.11, -10174.56, -12227.81, -4368.80, -227.27, 135870.33, 115903.70, 0.000, 0.000, 0.000, 18:39:40.968
145, -3487.81, 30929.85, -10104.78, -12246.99, -4506.36, -316.68, 135833.06, 115832.86, -0.062, 0.984, 0.046, 18:39:40.968
146, -3405.06, 30915.88, -10068.08, -12253.81, -4487.16, -228.68, 135814.42, 115797.63, 0.000, 0.000, 0.000, 18:39:40.969
147, -3164.54, 30932.67, -10119.80, -12237.51, -4344.84, -103.13, 135844.38, 115851.08, 0.000, 0.000, 0.000, 18:39:40.969
148, -3118.29, 30953.95, -10192.17, -12219.34, -4263.60, -131.41, 135881.64, 115917.73, 0.000, 0.000, 0.000, 18:39:40.970
149, -3310.63, 30948.80, -10183.19, -12221.62, -4362.03, -253.20, 135878.02, 115909.05, 0.000, 0.000, 0.000, 18:39:40.970
150, -3507.21, 30921.07, -10111.33, -12238.67, -4499.76, -305.53, 135838.52, 115835.66, 0.000, 0.000, 0.000, 18:39:40.970
151, -3452.32, 30908.97, -10075.50, -12247.86, -4483.94, -175.73, 135821.73, 115802.04, 0.000, 0.000, 0.000, 18:39:40.970
152, -3226.99, 30927.53, -10123.86, -12233.04, -4341.29, -4.34, 135853.09, 115856.77, 0.000, 0.000, 0.000, 18:39:40.971
153, -3182.08, 30946.44, -10189.47, -12212.48, -4261.09, -30.53, 135887.84, 115920.93, 0.000, 0.000, 0.000, 18:39:40.971
154, -3368.30, 30941.12, -10177.22, -12215.03, -4364.56, -188.40, 135884.05, 115911.98, 0.000, 0.000, 0.000, 18:39:40.971
155, -3540.45, 30914.12, -10093.85, -12233.31, -4505.69, -257.22, 135845.41, 115839.23, -0.056, 0.980, 0.056, 18:39:40.972
156, -3433.14, 30900.12, -10045.68, -12240.51, -4481.93, -139.25, 135826.88, 115803.42, 0.000, 0.000, 0.000, 18:39:40.972
157, -3183.56, 30915.66, -10084.79, -12222.45, -4331.95, -1.14, 135855.19, 115855.13, 0.000, 0.000, 0.000, 18:39:40.972
158, -3111.25, 30937.29, -10147.94, -12204.25, -4246.41, -30.31, 135892.98, 115922.24, 0.000, 0.000, 0.000, 18:39:40.972
159, -3279.63, 30934.95, -10139.29, -12209.39, -4361.83, -165.60, 135892.19, 115916.43, 0.000, 0.000, 0.000, 18:39:40.972
160, -3455.87, 30908.08, -10062.44, -12227.54, -4500.61, -218.73, 135853.70, 115844.02, 0.000, 0.000, 0.000, 18:39:40.973
161, -3357.66, 30894.60, -10014.59, -12235.30, -4469.54, -82.46, 135835.81, 115809.01, 0.000, 0.000, 0.000, 18:39:40.973
162, -3119.81, 30910.92, -10064.32, -12218.71, -4323.88, 73.05, 135864.94, 115861.70, 0.000, 0.000, 0.000, 18:39:40.973
163, -3072.72, 30931.51, -10130.19, -12199.94, -4248.31, 59.25, 135901.53, 115927.74, 0.000, 0.000, 0.000, 18:39:40.973
164, -3256.22, 30924.80, -10121.52, -12200.86, -4341.78, -81.03, 135896.44, 115917.77, -0.062, 0.990, 0.052, 18:39:40.974
165, -3424.71, 30899.70, -10046.15, -12220.73, -4480.94, -151.79, 135859.70, 115847.21, 0.000, 0.000, 0.000, 18:39:40.974
166, -3330.68, 30884.50, -10001.73, -12227.01, -4457.76, -22.11, 135840.17, 115810.48, 0.000, 0.000, 0.000, 18:39:40.974
167, -3097.33, 30901.73, -10055.42, -12211.38, -4313.53, 141.67, 135870.50, 115864.31, 0.000, 0.000, 0.000, 18:39:40.976
168, -3053.00, 30922.47, -10119.06, -12192.12, -4238.02, 125.37, 135907.39, 115930.73, 0.000, 0.000, 0.000, 18:39:40.977
169, -3249.30, 30917.69, -10102.47, -12193.95, -4341.80, -14.06, 135904.34, 115923.05, 0.000, 0.000, 0.000, 18:39:40.977
170, -3410.32, 30891.96, -10019.26, -12212.59, -4472.11, -76.42, 135867.00, 115852.09, 0.000, 0.000, 0.000, 18:39:40.977
171, -3315.64, 30876.86, -9974.26, -12218.96, -4451.44, 51.99, 135847.34, 115815.45, 0.000, 0.000, 0.000, 18:39:40.978
172, -3074.64, 30892.61, -10020.15, -12202.06, -4311.03, 201.66, 135876.23, 115867.77, 0.000, 0.000, 0.000, 18:39:40.978
173, -3025.44, 30914.88, -10091.41, -12184.90, -4232.30, 165.07, 135914.50, 115935.74, 0.000, 0.000, 0.000, 18:39:40.978
174, -3217.56, 30911.21, -10088.06, -12188.47, -4334.29, 3.38, 135912.38, 115929.24, -0.056, 0.986, 0.054, 18:39:40.978
175, -3399.30, 30885.77, -10015.06, -12207.67, -4476.41, -71.88, 135875.16, 115858.56, 0.000, 0.000, 0.000, 18:39:40.978
176, -3314.32, 30872.21, -9970.87, -12215.59, -4457.23, 44.35, 135856.89, 115823.47, 0.000, 0.000, 0.000, 18:39:40.979
177, -3080.56, 30887.40, -10020.71, -12198.22, -4319.85, 183.75, 135885.22, 115875.09, 0.000, 0.000, 0.000, 18:39:40.979
178, -3036.62, 30907.68, -10088.66, -12178.95, -4244.80, 156.53, 135921.84, 115941.58, 0.000, 0.000, 0.000, 18:39:40.979
179, -3241.38, 30901.87, -10082.42, -12180.78, -4339.50, 14.55, 135918.30, 115933.55, 0.000, 0.000, 0.000, 18:39:40.979
180, -3420.91, 30876.47, -10012.84, -12200.83, -4487.02, -65.98, 135881.64, 115863.10, 0.000, 0.000, 0.000, 18:39:40.979
181, -3341.85, 30863.49, -9975.23, -12210.09, -4463.06, 31.81, 135864.16, 115828.21, 0.000, 0.000, 0.000, 18:39:40.979
182, -3124.37, 30878.80, -10034.68, -12193.21, -4314.62, 162.97, 135892.48, 115879.69, 0.000, 0.000, 0.000, 18:39:40.979
183, -3078.28, 30899.79, -10103.59, -12174.75, -4245.18, 141.75, 135929.72, 115946.23, 0.000, 0.000, 0.000, 18:39:40.979
184, -3267.38, 30893.80, -10092.86, -12176.36, -4328.77, -13.14, 135925.80, 115937.53, -0.056, 0.988, 0.052, 18:39:40.980
185, -3428.69, 30867.67, -10010.27, -12195.71, -4480.18, -118.13, 135888.36, 115866.25, 0.000, 0.000, 0.000, 18:39:40.980
186, -3319.70, 30852.92, -9926.99, -12203.43, -4464.25, -45.26, 135869.30, 115829.62, 0.000, 0.000, 0.000, 18:39:40.980
187, -3077.10, 30870.73, -9906.05, -12189.37, -4320.61, 68.02, 135900.48, 115883.51, 0.000, 0.000, 0.000, 18:39:40.980
188, -3040.15, 30889.80, -9912.98, -12169.09, -4242.79, 25.03, 135935.77, 115948.30, 0.000, 0.000, 0.000, 18:39:40.980
189, -3255.64, 30885.46, -9857.99, -12171.96, -4323.19, -120.61, 135933.58, 115941.35, 0.000, 0.000, 0.000, 18:39:40.980
190, -3406.23, 30858.35, -9737.02, -12189.90, -4465.65, -170.68, 135895.45, 115869.09, 0.000, 0.000, 0.000, 18:39:40.980
191, -3289.37, 30843.35, -9650.81, -12197.30, -4446.83, -35.38, 135876.11, 115831.85, 0.000, 0.000, 0.000, 18:39:40.981
192, -3044.33, 30858.91, -9657.34, -12181.25, -4297.64, 114.53, 135905.11, 115883.33, 0.000, 0.000, 0.000, 18:39:40.981
193, -2989.66, 30879.63, -9683.71, -12162.86, -4217.64, 77.45, 135942.30, 115949.80, 0.000, 0.000, 0.000, 18:39:40.981
194, -3188.16, 30872.47, -9646.72, -12163.15, -4316.68, -81.56, 135937.36, 115939.99, -0.054, 0.986, 0.054, 18:39:40.981
195, -3362.91, 30845.14, -9555.24, -12181.70, -4462.73, -157.18, 135898.92, 115867.33, 0.000, 0.000, 0.000, 18:39:40.981
196, -3261.70, 30829.45, -9502.44, -12189.66, -4444.42, -31.25, 135879.20, 115829.44, 0.000, 0.000, 0.000, 18:39:40.981
197, -3009.35, 30846.61, -9546.03, -12176.40, -4299.20, 102.77, 135910.05, 115882.62, 0.000, 0.000, 0.000, 18:39:40.981
198, -2951.35, 30866.39, -9596.32, -12158.05, -4222.49, 71.53, 135946.61, 115948.27, 0.000, 0.000, 0.000, 18:39:40.981
199, -3146.70, 30856.72, -9563.44, -12156.78, -4322.42, -91.82, 135939.34, 115935.95, 0.000, 0.000, 0.000, 18:39:40.982
200, -3345.09, 30829.60, -9479.64, -12176.31, -4468.76, -188.74, 135901.31, 115863.35, 0.000, 0.000, 0.000, 18:39:40.982
201, -3262.04, 30814.81, -9429.35, -12185.30, -4445.34, -88.13, 135882.36, 115826.16, 0.000, 0.000, 0.000, 18:39:40.982
202, -3016.66, 30828.60, -9473.76, -12168.76, -4295.31, 57.58, 135909.75, 115875.80, 0.000, 0.000, 0.000, 18:39:40.982
203, -2958.05, 30845.85, -9539.25, -12148.49, -4217.75, 39.29, 135944.09, 115939.01, -0.056, 0.984, 0.062, 18:39:40.982
204, -3141.09, 30841.63, -9516.68, -12153.04, -4305.93, -100.07, 135942.44, 115932.19, 0.000, 0.000, 0.000, 18:39:40.982
205, -3308.93, 30815.10, -9423.25, -12173.50, -4461.25, -170.32, 135904.95, 115860.24, 0.000, 0.000, 0.000, 18:39:40.982
206, -3219.81, 30796.90, -9357.51, -12180.07, -4444.80, -73.00, 135882.64, 115819.20, 0.000, 0.000, 0.000, 18:39:40.983
207, -2991.94, 30809.26, -9386.17, -12162.72, -4293.41, 60.33, 135908.39, 115866.73, 0.000, 0.000, 0.000, 18:39:40.983
208, -2932.30, 30830.74, -9439.21, -12146.63, -4224.68, 44.88, 135946.66, 115933.78, 0.000, 0.000, 0.000, 18:39:40.983
209, -3106.51, 30824.60, -9414.42, -12148.89, -4310.67, -70.41, 135942.81, 115924.91, 0.000, 0.000, 0.000, 18:39:40.983
210, -3285.42, 30797.26, -9332.88, -12168.22, -4463.06, -113.97, 135904.08, 115851.68, 0.000, 0.000, 0.000, 18:39:40.983
211, -3198.78, 30781.35, -9284.47, -12176.94, -4443.19, 20.18, 135883.77, 115812.72, 0.000, 0.000, 0.000, 18:39:40.983
212, -2947.77, 30795.36, -9327.41, -12161.29, -4284.43, 182.35, 135911.28, 115862.05, 0.000, 0.000, 0.000, 18:39:40.983
213, -2888.09, 30814.36, -9390.57, -12142.83, -4214.65, 163.88, 135946.97, 115926.52, -0.060, 0.980, 0.060, 18:39:40.983
214, -3084.18, 30809.89, -9364.75, -12146.23, -4314.58, 17.43, 135944.33, 115918.78, 0.000, 0.000, 0.000, 18:39:40.984
215, -3269.79, 30783.43, -9266.16, -12165.81, -4458.01, -37.46, 135906.30, 115846.16, 0.000, 0.000, 0.000, 18:39:40.984
216, -3187.11, 30767.42, -9208.85, -12174.19, -4439.70, 84.06, 135885.64, 115806.53, 0.000, 0.000, 0.000, 18:39:40.984
217, -2934.76, 30782.87, -9251.14, -12160.00, -4291.38, 227.90, 135914.38, 115856.84, 0.000, 0.000, 0.000, 18:39:40.984
218, -2870.01, 30801.62, -9303.73, -12140.26, -4216.34, 208.56, 135949.20, 115920.48, 0.000, 0.000, 0.000, 18:39:40.984
219, -3073.79, 30796.43, -9272.67, -12142.12, -4301.46, 75.77, 135945.31, 115911.67, 0.000, 0.000, 0.000, 18:39:40.984
220, -3268.47, 30772.90, -9181.47, -12164.22, -4441.56, 10.04, 135909.84, 115841.47, 0.000, 0.000, 0.000, 18:39:40.985
221, -3187.83, 30757.97, -9135.72, -12173.03, -4422.18, 108.38, 135889.64, 115802.35, 0.000, 0.000, 0.000, 18:39:40.985
222, -2945.07, 30770.53, -9195.71, -12155.30, -4274.70, 228.19, 135914.92, 115849.34, 0.000, 0.000, 0.000, 18:39:40.985
223, -2883.31, 30789.79, -9274.95, -12135.86, -4201.61, 180.49, 135950.25, 115913.48, -0.056, 0.988, 0.054, 18:39:40.985
224, -3075.80, 30784.12, -9270.88, -12137.06, -4292.92, 6.77, 135946.08, 115904.48, 0.000, 0.000, 0.000, 18:39:40.985
225, -3263.51, 30757.65, -9195.87, -12155.75, -4438.03, -71.73, 135907.52, 115831.34, 0.000, 0.000, 0.000, 18:39:40.985
226, -3193.93, 30742.34, -9145.01, -12163.48, -4420.10, 36.72, 135886.89, 115791.73, 0.000, 0.000, 0.000, 18:39:40.985
227, -2964.13, 30757.09, -9192.65, -12146.85, -4272.47, 167.19, 135913.98, 115840.64, 0.000, 0.000, 0.000, 18:39:40.985
228, -2921.62, 30777.97, -9264.82, -12127.65, -4187.80, 138.76, 135950.38, 115906.45, 0.000, 0.000, 0.000, 18:39:40.986
229, -3134.99, 30773.59, -9256.42, -12128.88, -4277.03, 6.17, 135947.31, 115898.91, 0.000, 0.000, 0.000, 18:39:40.986
230, -3325.63, 30748.98, -9169.80, -12148.55, -4416.75, -49.89, 135910.58, 115828.10, 0.000, 0.000, 0.000, 18:39:40.986
231, -3237.40, 30735.59, -9113.36, -12157.92, -4396.34, 76.17, 135891.88, 115790.64, 0.000, 0.000, 0.000, 18:39:40.986
232, -3007.85, 30750.39, -9161.06, -12140.62, -4243.90, 199.33, 135918.63, 115839.56, 0.000, 0.000, 0.000, 18:39:40.986
233, -2958.92, 30772.18, -9230.69, -12121.04, -4153.49, 150.96, 135955.84, 115906.62, -0.054, 0.990, 0.054, 18:39:40.986
234, -3138.72, 30769.28, -9210.33, -12122.31, -4262.61, 14.82, 135954.34, 115901.41, 0.000, 0.000, 0.000, 18:39:40.986
235, -3285.28, 30742.46, -9122.35, -12138.99, -4396.52, -45.53, 135915.81, 115829.22, 0.000, 0.000, 0.000, 18:39:40.986
236, -3162.93, 30728.86, -9073.62, -12147.99, -4384.21, 58.52, 135897.13, 115792.29, 0.000, 0.000, 0.000, 18:39:40.987
237, -2908.41, 30744.24, -9120.56, -12131.72, -4249.58, 179.93, 135925.05, 115842.88, 0.000, 0.000, 0.000, 18:39:40.987
238, -2862.52, 30766.21, -9182.90, -12112.72, -4171.42, 125.84, 135962.66, 115910.71, 0.000, 0.000, 0.000, 18:39:40.987
239, -3091.94, 30765.07, -9174.79, -12116.01, -4272.36, -42.31, 135962.59, 115907.07, 0.000, 0.000, 0.000, 18:39:40.987
240, -3300.53, 30741.67, -9107.87, -12136.53, -4413.91, -133.46, 135927.39, 115838.41, 0.000, 0.000, 0.000, 18:39:40.987
241, -3227.79, 30726.74, -9068.19, -12143.75, -4393.48, -67.44, 135907.00, 115800.12, 0.000, 0.000, 0.000, 18:39:41.442
242, -3001.84, 30742.19, -9113.59, -12126.49, -4242.79, 27.14, 135934.47, 115850.52, 0.000, 0.000, 0.000, 18:39:41.442
243, -2955.41, 30763.85, -9178.45, -12106.73, -4162.95, -15.56, 135972.03, 115918.40, -0.048, 0.986, 0.046, 18:39:41.443
244, -3144.44, 30760.54, -9158.20, -12107.65, -4254.41, -153.56, 135970.47, 115913.62, 0.000, 0.000, 0.000, 18:39:41.444
245, -3310.38, 30734.01, -9074.96, -12124.52, -4388.12, -218.62, 135932.00, 115841.96, 0.000, 0.000, 0.000, 18:39:41.444
246, -3216.55, 30719.77, -9031.45, -12132.71, -4375.67, -98.12, 135912.33, 115804.25, 0.000, 0.000, 0.000, 18:39:41.444
247, -2977.97, 30737.25, -9092.49, -12118.02, -4233.49, 59.43, 135942.02, 115856.53, 0.000, 0.000, 0.000, 18:39:41.445
248, -2915.72, 30759.31, -9168.82, -12098.60, -4143.19, 66.21, 135979.92, 115924.81, 0.000, 0.000, 0.000, 18:39:41.445
249, -3080.79, 30753.83, -9167.95, -12097.66, -4240.37, -47.70, 135976.30, 115918.00, 0.000, 0.000, 0.000, 18:39:41.445
250, -3241.70, 30730.59, -9108.76, -12118.74, -4387.51, -132.30, 135941.20, 115849.45, 0.000, 0.000, 0.000, 18:39:41.445
251, -3147.77, 30715.43, -9075.63, -12126.78, -4376.09, -33.06, 135920.63, 115810.38, 0.000, 0.000, 0.000, 18:39:41.446
252, -2917.93, 30729.63, -9131.56, -12109.17, -4227.88, 127.07, 135947.06, 115859.17, -0.062, 0.984, 0.044, 18:39:41.446
253, -2875.15, 30750.48, -9198.32, -12088.85, -4139.54, 123.38, 135983.78, 115926.00, 0.000, 0.000, 0.000, 18:39:41.446
254, -3075.09, 30750.99, -9183.68, -12093.90, -4241.15, -19.22, 135986.02, 115924.81, 0.000, 0.000, 0.000, 18:39:41.446
255, -3253.79, 30727.48, -9102.68, -12114.26, -4380.25, -92.51, 135950.55, 115855.81, 0.000, 0.000, 0.000, 18:39:41.446
0, -3167.22, 30710.96, -9061.38, -12120.70, -4363.28, 42.18, 135928.75, 115815.34, 0.000, 0.000, 0.000, 18:39:41.447
1, -2932.91, 30724.17, -9103.91, -12101.73, -4210.17, 214.98, 135954.34, 115863.23, 0.000, 0.000, 0.000, 18:39:41.447
2, -2880.67, 30746.14, -9159.57, -12082.21, -4122.18, 167.59, 135992.14, 115931.25, 0.000, 0.000, 0.000, 18:39:41.447
3, -3084.14, 30745.56, -9146.36, -12086.12, -4226.36, -9.83, 135993.28, 115929.06, 0.000, 0.000, 0.000, 18:39:41.447
4, -3264.99, 30719.92, -9071.81, -12103.96, -4366.90, -83.06, 135955.91, 115858.16, 0.000, 0.000, 0.000, 18:39:41.448
5, -3170.80, 30704.59, -9040.12, -12111.52, -4354.32, 38.74, 135935.39, 115819.07, 0.000, 0.000, 0.000, 18:39:41.448
6, -2920.90, 30720.71, -9099.10, -12096.12, -4213.50, 170.07, 135964.11, 115869.96, -0.062, 0.986, 0.044, 18:39:41.448
7, -2867.42, 30741.69, -9162.70, -12076.22, -4132.77, 110.22, 136001.33, 115937.47, 0.000, 0.000, 0.000, 18:39:41.448
8, -3056.87, 30738.50, -9135.20, -12077.41, -4238.70, -76.62, 136000.03, 115933.09, 0.000, 0.000, 0.000, 18:39:41.448
9, -3232.04, 30711.77, -9039.65, -12094.35, -4381.52, -161.80, 135961.77, 115861.70, 0.000, 0.000, 0.000, 18:39:41.449
10, -3159.69, 30700.30, -8976.42, -12105.41, -4365.21, -29.33, 135944.95, 115826.47, 0.000, 0.000, 0.000, 18:39:41.449
11, -2928.06, 30716.57, -9003.42, -12089.57, -4218.27, 125.91, 135973.70, 115877.61, 0.000, 0.000, 0.000, 18:39:41.449
12, -2882.77, 30737.29, -9051.47, -12068.47, -4138.89, 102.46, 136010.50, 115945.02, 0.000, 0.000, 0.000, 18:39:41.449
13, -3089.61, 30735.68, -9011.33, -12070.17, -4234.74, -40.21, 136010.72, 115942.48, 0.000, 0.000, 0.000, 18:39:41.449
14, -3282.35, 30711.21, -8895.68, -12088.69, -4371.96, -109.90, 135974.69, 115873.36, 0.000, 0.000, 0.000, 18:39:41.449
15, -3192.43, 30698.06, -8821.03, -12098.28, -4357.61, -17.64, 135956.27, 115836.52, 0.000, 0.000, 0.000, 18:39:41.450
16, -2948.55, 30712.48, -8854.29, -12080.38, -4213.21, 93.56, 135982.91, 115885.66, -0.064, 0.982, 0.044, 18:39:41.450
17, -2893.75, 30731.97, -8916.25, -12057.87, -4133.51, 45.55, 136018.61, 115952.22, 0.000, 0.000, 0.000, 18:39:41.450
18, -3079.02, 30730.94, -8890.83, -12060.35, -4214.22, -104.45, 136019.64, 115950.77, 0.000, 0.000, 0.000, 18:39:41.450
19, -3275.72, 30707.05, -8792.75, -12079.31, -4361.38, -201.81, 135983.72, 115881.88, 0.000, 0.000, 0.000, 18:39:41.450
20, -3196.46, 30691.20, -8723.48, -12085.83, -4347.06, -127.16, 135962.38, 115842.16, 0.000, 0.000, 0.000, 18:39:41.450
21, -2948.66, 30708.01, -8754.64, -12070.23, -4190.30, 5.68, 135991.58, 115893.81, 0.000, 0.000, 0.000, 18:39:41.450
22, -2877.03, 30731.93, -8804.40, -12051.97, -4105.32, -24.86, 136031.77, 115964.94, 0.000, 0.000, 0.000, 18:39:41.450
23, -3054.05, 30729.33, -8781.93, -12052.89, -4204.21, -188.13, 136031.19, 115961.88, 0.000, 0.000, 0.000, 18:39:41.451
24, -3232.98, 30704.03, -8694.07, -12070.50, -4342.30, -258.21, 135994.30, 115891.80, 0.000, 0.000, 0.000, 18:39:41.451
25, -3142.14, 30688.14, -8636.54, -12077.12, -4324.97, -142.67, 135972.91, 115852.02, 0.000, 0.000, 0.000, 18:39:41.451
26, -2905.10, 30704.28, -8675.16, -12061.31, -4179.49, -23.65, 136001.23, 115903.07, -0.064, 0.980, 0.048, 18:39:41.451
27, -2839.39, 30725.36, -8727.51, -12040.39, -4096.94, -80.69, 136038.64, 115971.30, 0.000, 0.000, 0.000, 18:39:41.451
28, -3019.70, 30723.34, -8712.58, -12042.05, -4194.66, -246.03, 136038.88, 115969.02, 0.000, 0.000, 0.000, 18:39:41.451
29, -3190.20, 30697.75, -8632.13, -12060.26, -4341.65, -361.85, 136001.69, 115898.87, 0.000, 0.000, 0.000, 18:39:41.451
30, -3113.24, 30681.72, -8575.81, -12067.53, -4329.69, -276.22, 135980.23, 115858.77, 0.000, 0.000, 0.000, 18:39:41.452
31, -2886.26, 30697.91, -8610.09, -12052.15, -4178.14, -128.97, 136008.75, 115909.66, 0.000, 0.000, 0.000, 18:39:41.452
32, -2839.23, 30719.68, -8662.66, -12031.68, -4092.11, -144.39, 136046.75, 115978.59, 0.000, 0.000, 0.000, 18:39:41.452
33, -3037.40, 30718.63, -8633.94, -12033.69, -4174.72, -295.96, 136048.11, 115977.56, 0.000, 0.000, 0.000, 18:39:41.452
34, -3220.69, 30692.92, -8543.22, -12051.03, -4321.62, -361.92, 136011.09, 115907.49, 0.000, 0.000, 0.000, 18:39:41.452
35, -3135.97, 30675.51, -8498.33, -12056.55, -4317.82, -241.71, 135988.41, 115865.98, 0.000, 0.000, 0.000, 18:39:41.452
36, -2905.17, 30692.74, -8553.05, -12041.58, -4173.45, -75.71, 136018.09, 115917.93, -0.062, 0.986, 0.044, 18:39:41.452
37, -2833.08, 30714.56, -8621.72, -12021.19, -4090.82, -98.84, 136056.61, 115987.35, 0.000, 0.000, 0.000, 18:39:41.452
38, -2982.86, 30710.47, -8609.60, -12021.28, -4174.52, -280.16, 136055.31, 115983.60, 0.000, 0.000, 0.000, 18:39:41.453
39, -3142.54, 30687.98, -8530.10, -12042.83, -4326.90, -369.38, 136021.53, 115916.70, 0.000, 0.000, 0.000, 18:39:41.453
40, -3049.36, 30674.37, -8475.94, -12053.13, -4318.83, -267.48, 136002.69, 115879.20, 0.000, 0.000, 0.000, 18:39:41.453
41, -2808.07, 30688.14, -8512.62, -12036.24, -4168.38, -144.15, 136029.25, 115928.08, 0.000, 0.000, 0.000, 18:39:41.453
42, -2746.29, 30709.84, -8574.58, -12016.95, -4096.54, -190.71, 136067.77, 115997.41, 0.000, 0.000, 0.000, 18:39:41.453
43, -2952.24, 30705.24, -8567.33, -12016.07, -4179.15, -333.56, 136065.59, 115992.83, 0.000, 0.000, 0.000, 18:39:41.453
44, -3166.84, 30683.24, -8492.46, -12037.55, -4323.43, -392.74, 136032.16, 115926.34, 0.000, 0.000, 0.000, 18:39:41.453
45, -3100.66, 30670.01, -8457.88, -12048.10, -4312.72, -261.65, 136013.84, 115889.05, -0.060, 0.982, 0.044, 18:39:41.453
46, -2851.39, 30682.55, -8518.56, -12030.02, -4162.16, -104.14, 136039.38, 115936.66, 0.000, 0.000, 0.000, 18:39:41.454
47, -2775.55, 30703.47, -8598.40, -12009.68, -4078.77, -125.46, 136077.11, 116005.28, 0.000, 0.000, 0.000, 18:39:41.454
48, -2955.97, 30701.26, -8603.63, -12010.80, -4162.99, -275.02, 136077.39, 116003.52, 0.000, 0.000, 0.000, 18:39:41.454
49, -3127.95, 30677.39, -8547.69, -12030.71, -4312.12, -352.40, 136042.48, 115935.59, 0.000, 0.000, 0.000, 18:39:41.454
50, -3058.30, 30663.33, -8526.43, -12040.68, -4308.79, -247.81, 136023.09, 115897.32, 0.000, 0.000, 0.000, 18:39:41.454
51, -2841.00, 30677.52, -8590.92, -12023.72, -4162.95, -96.18, 136049.66, 115946.07, 0.000, 0.000, 0.000, 18:39:41.454
52, -2785.61, 30698.40, -8668.05, -12002.71, -4086.93, -87.86, 136087.23, 116014.71, 0.000, 0.000, 0.000, 18:39:41.454
53, -2971.04, 30696.19, -8665.64, -12003.96, -4169.81, -238.90, 136087.83, 116013.28, 0.000, 0.000, 0.000, 18:39:41.454
54, -3155.04, 30671.53, -8580.25, -12023.16, -4317.73, -342.00, 136051.89, 115944.62, 0.000, 0.000, 0.000, 18:39:41.455
55, -3066.10, 30653.88, -8507.92, -12029.42, -4303.69, -222.33, 136029.16, 115902.87, -0.060, 0.984, 0.042, 18:39:41.455
56, -2813.10, 30669.07, -8545.36, -12014.04, -4150.00, -39.32, 136057.23, 115952.80, 0.000, 0.000, 0.000, 18:39:41.455
57, -2738.11, 30691.25, -8598.69, -11994.66, -4070.88, -27.54, 136096.44, 116023.07, 0.000, 0.000, 0.000, 18:39:41.455
58, -2934.49, 30687.71, -8580.61, -11994.57, -4151.41, -154.20, 136095.41, 116019.99, 0.000, 0.000, 0.000, 18:39:41.455
59, -3124.37, 30662.46, -8494.98, -12012.86, -4295.49, -182.84, 136058.81, 115950.48, 0.000, 0.000, 0.000, 18:39:41.455
60, -3020.32, 30646.74, -8445.38, -12021.46, -4289.12, -27.20, 136038.05, 115910.60, 0.000, 0.000, 0.000, 18:39:41.455
61, -2766.07, 30661.65, -8483.76, -12006.82, -4144.88, 145.13, 136065.92, 115960.31, 0.000, 0.000, 0.000, 18:39:41.456
62, -2703.53, 30683.11, -8520.62, -11987.37, -4060.84, 145.76, 136104.39, 116029.65, 0.000, 0.000, 0.000, 18:39:41.456
63, -2899.38, 30681.32, -8478.44, -11989.27, -4146.58, -5.34, 136105.00, 116027.99, 0.000, 0.000, 0.000, 18:39:41.456
64, -3098.49, 30655.66, -8383.45, -12008.00, -4298.58, -95.42, 136067.98, 115957.98, 0.000, 0.000, 0.000, 18:39:41.456
65, -3015.79, 30640.51, -8328.26, -12018.24, -4293.70, 22.60, 136047.73, 115918.40, -0.062, 0.982, 0.044, 18:39:41.456
66, -2765.40, 30657.09, -8366.32, -12005.48, -4147.32, 194.33, 136077.33, 115969.54, 0.000, 0.000, 0.000, 18:39:41.456
67, -2701.63, 30676.90, -8423.92, -11984.51, -4073.43, 201.66, 136114.14, 116037.29, 0.000, 0.000, 0.000, 18:39:41.456
68, -2893.37, 30674.15, -8405.95, -11985.70, -4154.68, 57.60, 136114.03, 116035.14, 0.000, 0.000, 0.000, 18:39:41.456
69, -3075.51, 30649.78, -8325.06, -12006.19, -4307.99, -48.01, 136078.56, 115966.44, 0.000, 0.000, 0.000, 18:39:41.457
70, -2988.76, 30634.70, -8264.60, -12016.43, -4301.64, 41.82, 136058.28, 115926.73, 0.000, 0.000, 0.000, 18:39:41.457
71, -2756.42, 30647.91, -8283.04, -12000.25, -4153.83, 176.49, 136084.55, 115974.57, 0.000, 0.000, 0.000, 18:39:41.457
72, -2701.30, 30668.63, -8315.94, -11979.69, -4074.88, 134.71, 136122.59, 116043.39, 0.000, 0.000, 0.000, 18:39:41.457
73, -2887.76, 30667.40, -8260.80, -11981.79, -4135.83, -37.15, 136124.31, 116043.08, 0.000, 0.000, 0.000, 18:39:41.457
74, -3089.57, 30641.69, -8133.49, -11999.62, -4283.44, -133.24, 136087.52, 115973.16, 0.000, 0.000, 0.000, 18:39:41.457
75, -3022.81, 30624.44, -8053.02, -12007.54, -4279.73, -40.70, 136065.61, 115931.63, -0.058, 0.984, 0.046, 18:39:41.457
76, -2781.32, 30639.05, -8064.46, -11992.63, -4127.32, 115.25, 136093.69, 115981.14, 0.000, 0.000, 0.000, 18:39:41.459
77, -2726.20, 30660.54, -8080.58, -11972.96, -4048.53, 104.83, 136132.48, 116050.90, 0.000, 0.000, 0.000, 18:39:41.460
78, -2924.39, 30656.94, -8023.29, -11972.85, -4127.12, -50.78, 136132.31, 116049.07, 0.000, 0.000, 0.000, 18:39:41.460
79, -3105.75, 30629.09, -7910.64, -11989.36, -4281.12, -126.62, 136093.94, 115977.90, 0.000, 0.000, 0.000, 18:39:41.461
80, -3023.52, 30613.33, -7848.84, -11999.18, -4277.61, 9.70, 136073.73, 115938.16, 0.000, 0.000, 0.000, 18:39:41.461
81, -2790.44, 30628.13, -7879.39, -11984.58, -4121.15, 171.19, 136101.89, 115987.84, 0.000, 0.000, 0.000, 18:39:41.461
82, -2740.26, 30649.00, -7930.89, -11964.35, -4036.75, 160.04, 136140.53, 116057.67, 0.000, 0.000, 0.000, 18:39:41.461
83, -2925.82, 30644.33, -7888.53, -11963.26, -4113.37, -3.31, 136139.80, 116055.46, 0.000, 0.000, 0.000, 18:39:41.461
84, -3096.05, 30618.38, -7770.78, -11981.67, -4260.00, -93.34, 136103.83, 115986.55, 0.000, 0.000, 0.000, 18:39:41.461
85, -3017.40, 30600.81, -7709.76, -11990.15, -4257.65, 14.84, 136082.00, 115944.91, -0.060, 0.988, 0.042, 18:39:41.461
86, -2766.54, 30614.74, -7767.45, -11975.42, -4105.99, 190.66, 136109.80, 115994.13, 0.000, 0.000, 0.000, 18:39:41.462
87, -2689.38, 30633.87, -7836.97, -11953.91, -4023.69, 218.67, 136147.31, 116062.86, 0.000, 0.000, 0.000, 18:39:41.462
88, -2886.77, 30630.67, -7787.91, -11954.16, -4101.48, 83.73, 136148.06, 116062.16, 0.000, 0.000, 0.000, 18:39:41.462
89, -3089.17, 30605.75, -7663.81, -11973.54, -4255.24, 13.66, 136113.02, 115994.13, 0.000, 0.000, 0.000, 18:39:41.462
90, -3023.63, 30588.61, -7587.77, -11982.10, -4255.28, 142.29, 136091.61, 115952.95, 0.000, 0.000, 0.000, 18:39:41.462
91, -2784.94, 30600.23, -7606.70, -11964.62, -4110.20, 311.96, 136117.09, 115999.76, 0.000, 0.000, 0.000, 18:39:41.462
92, -2720.01, 30622.20, -7614.84, -11945.38, -4030.18, 315.16, 136157.05, 116070.84, 0.000, 0.000, 0.000, 18:39:41.462
93, -2915.81, 30620.28, -7521.61, -11946.96, -4106.28, 180.40, 136159.36, 116071.40, 0.000, 0.000, 0.000, 18:39:41.462
94, -3088.61, 30593.39, -7374.56, -11964.80, -4262.41, 83.19, 136122.45, 116001.59, -0.060, 0.978, 0.048, 18:39:41.463
95, -2996.65, 30576.60, -7266.73, -11974.25, -4263.71, 171.66, 136101.08, 115960.47, 0.000, 0.000, 0.000, 18:39:41.463
96, -2759.68, 30589.70, -7250.17, -11958.54, -4111.38, 330.65, 136127.59, 116008.12, 0.000, 0.000, 0.000, 18:39:41.463
97, -2697.61, 30609.37, -7228.44, -11937.13, -4028.50, 314.00, 136165.06, 116076.52, 0.000, 0.000, 0.000, 18:39:41.463
98, -2869.32, 30605.86, -7116.66, -11937.15, -4095.76, 144.75, 136165.44, 116075.20, 0.000, 0.000, 0.000, 18:39:41.463
99, -3043.28, 30580.40, -6922.11, -11956.04, -4250.34, 49.80, 136129.45, 116005.93, 0.000, 0.000, 0.000, 18:39:41.463
100, -2957.16, 30560.04, -6739.59, -11961.63, -4249.94, 150.78, 136104.22, 115960.35, 0.000, 0.000, 0.000, 18:39:41.463
101, -2725.37, 30573.97, -6641.55, -11946.54, -4090.37, 307.72, 136131.08, 116008.01, 0.000, 0.000, 0.000, 18:39:41.463
102, -2660.68, 30594.93, -6562.05, -11925.86, -4010.26, 313.89, 136169.70, 116077.27, 0.000, 0.000, 0.000, 18:39:41.464
103, -2839.25, 30591.04, -6434.51, -11925.08, -4088.04, 154.72, 136169.38, 116075.04, 0.000, 0.000, 0.000, 18:39:41.464
104, -3023.36, 30563.28, -6292.17, -11942.36, -4252.58, 33.42, 136130.91, 116003.09, -0.056, 0.980, 0.046, 18:39:41.464
105, -2938.11, 30545.47, -6192.71, -11951.25, -4255.37, 129.71, 136108.02, 115959.48, 0.000, 0.000, 0.000, 18:39:41.923
106, -2689.63, 30559.44, -6189.18, -11937.28, -4095.85, 296.97, 136135.38, 116007.30, 0.000, 0.000, 0.000, 18:39:41.923
107, -2631.78, 30581.39, -6215.15, -11918.80, -4015.62, 270.28, 136175.03, 116077.39, 0.000, 0.000, 0.000, 18:39:41.924
108, -2822.29, 30579.26, -6162.06, -11920.45, -4082.70, 68.11, 136175.89, 116076.05, 0.000, 0.000, 0.000, 18:39:41.924
109, -3008.48, 30553.02, -6018.27, -11939.43, -4250.09, -47.74, 136138.69, 116005.26, 0.000, 0.000, 0.000, 18:39:41.924
110, -2924.39, 30535.41, -5905.60, -11948.88, -4257.20, 50.09, 136115.77, 115961.49, 0.000, 0.000, 0.000, 18:39:41.924
111, -2700.60, 30546.81, -5893.22, -11932.23, -4095.96, 198.80, 136139.98, 116006.00, 0.000, 0.000, 0.000, 18:39:41.924
112, -2619.31, 30567.57, -5894.42, -11912.29, -4015.40, 190.30, 136178.31, 116074.91, 0.000, 0.000, 0.000, 18:39:41.924
113, -2763.44, 30565.32, -5829.20, -11913.12, -4082.12, 36.57, 136178.95, 116073.55, 0.000, 0.000, 0.000, 18:39:41.924
114, -2933.09, 30541.11, -5680.90, -11933.53, -4242.83, -49.44, 136143.59, 116004.56, -0.056, 0.978, 0.052, 18:39:41.925
115, -2858.94, 30523.74, -5563.17, -11943.12, -4245.04, 82.43, 136120.91, 115960.91, 0.000, 0.000, 0.000, 18:39:41.925
116, -2728.46, 30532.95, -5543.84, -11924.97, -4079.53, 269.25, 136143.58, 116003.63, 0.000, 0.000, 0.000, 18:39:41.925
117, -2657.82, 30553.02, -5558.39, -11903.38, -3990.81, 266.10, 136180.45, 116071.02, 0.000, 0.000, 0.000, 18:39:41.927
118, -2726.85, 30551.23, -5526.36, -11904.32, -4067.39, 96.63, 136180.95, 116069.56, 0.000, 0.000, 0.000, 18:39:41.927
119, -2876.09, 30526.36, -5454.29, -11924.86, -4232.66, -9.37, 136144.78, 115999.80, 0.000, 0.000, 0.000, 18:39:41.927
120, -2805.32, 30507.36, -5412.23, -11933.84, -4240.95, 97.03, 136120.47, 115954.38, 0.000, 0.000, 0.000, 18:39:41.927
121, -2837.08, 30518.56, -5454.54, -11917.57, -4065.58, 270.86, 136145.20, 115999.27, 0.000, 0.000, 0.000, 18:39:41.927
122, -2704.11, 30542.21, -5511.14, -11897.86, -3969.49, 282.73, 136185.13, 116069.90, 0.000, 0.000, 0.000, 18:39:41.927
123, -2704.23, 30541.33, -5495.42, -11898.75, -4056.60, 153.85, 136186.33, 116069.23, 0.000, 0.000, 0.000, 18:39:41.927
124, -2842.49, 30513.93, -5403.62, -11916.45, -4223.16, 67.01, 136147.52, 115996.74, -0.054, 0.982, 0.054, 18:39:41.927
125, -2797.63, 30496.41, -5333.98, -11926.87, -4227.56, 172.64, 136124.63, 115952.76, 0.000, 0.000, 0.000, 18:39:41.927
126, -2899.67, 30507.25, -5331.81, -11909.37, -4045.17, 355.12, 136148.92, 115997.28, 0.000, 0.000, 0.000, 18:39:41.928
127, -2736.35, 30528.66, -5371.15, -11886.37, -3934.73, 357.31, 136186.69, 116065.54, 0.000, 0.000, 0.000, 18:39:41.928
128, -2662.11, 30526.65, -5369.31, -11886.10, -4028.25, 160.44, 136186.67, 116063.77, 0.000, 0.000, 0.000, 18:39:41.928
129, -2777.63, 30501.26, -5275.39, -11905.59, -4194.80, 25.97, 136149.59, 115993.10, 0.000, 0.000, 0.000, 18:39:41.929
130, -2770.21, 30482.19, -5173.87, -11914.35, -4205.17, 116.41, 136125.14, 115947.48, 0.000, 0.000, 0.000, 18:39:41.929
131, -2933.58, 30494.95, -5146.24, -11898.12, -4027.78, 287.13, 136151.11, 115993.50, 0.000, 0.000, 0.000, 18:39:41.929
132, -2751.25, 30517.21, -5159.65, -11875.64, -3916.34, 265.00, 136189.64, 116062.46, 0.000, 0.000, 0.000, 18:39:41.929
133, -2638.44, 30513.77, -5107.42, -11873.40, -4018.11, 70.68, 136188.17, 116059.06, 0.000, 0.000, 0.000, 18:39:41.929
134, -2756.33, 30488.63, -4986.14, -11892.83, -4186.91, -63.79, 136151.16, 115988.31, -0.062, 0.978, 0.046, 18:39:41.929
135, -2753.56, 30471.21, -4893.62, -11903.17, -4196.45, 30.09, 136128.05, 115943.84, 0.000, 0.000, 0.000, 18:39:41.929
136, -2910.51, 30484.04, -4918.08, -11887.62, -4019.98, 197.52, 136154.03, 115989.55, 0.000, 0.000, 0.000, 18:39:41.929
137, -2732.77, 30503.78, -5011.44, -11863.12, -3911.13, 196.43, 136190.11, 116055.98, 0.000, 0.000, 0.000, 18:39:41.929
138, -2628.43, 30500.74, -5056.95, -11862.03, -4005.10, 30.80, 136189.22, 116053.25, 0.000, 0.000, 0.000, 18:39:41.929
139, -2746.98, 30476.83, -5030.19, -11883.24, -4176.80, -57.18, 136153.66, 115983.66, 0.000, 0.000, 0.000, 18:39:41.929
140, -2739.83, 30459.03, -5021.52, -11894.23, -4189.95, 62.20, 136130.59, 115938.72, 0.000, 0.000, 0.000, 18:39:41.929
141, -2896.29, 30468.13, -5120.38, -11875.33, -4012.56, 254.45, 136152.81, 115980.41, 0.000, 0.000, 0.000, 18:39:41.929
142, -2715.27, 30490.33, -5262.52, -11853.15, -3901.05, 261.56, 136191.52, 116049.47, 0.000, 0.000, 0.000, 18:39:41.930
143, -2615.36, 30488.40, -5336.23, -11852.75, -4009.03, 83.10, 136191.77, 116047.99, -0.066, 0.982, 0.044, 18:39:41.930
144, -2729.35, 30462.50, -5333.15, -11872.26, -4183.53, -32.95, 136154.55, 115976.90, 0.000, 0.000, 0.000, 18:39:41.930
145, -2744.77, 30444.62, -5325.39, -11882.99, -4187.33, 72.93, 136131.53, 115932.03, 0.000, 0.000, 0.000, 18:39:41.930
146, -2907.56, 30456.75, -5390.03, -11866.00, -3991.28, 286.80, 136156.63, 115976.60, 0.000, 0.000, 0.000, 18:39:41.930
147, -2718.96, 30477.90, -5494.93, -11842.42, -3869.96, 311.00, 136194.45, 116045.00, 0.000, 0.000, 0.000, 18:39:41.930
148, -2595.04, 30475.02, -5540.80, -11840.84, -3987.93, 143.70, 136194.06, 116042.79, 0.000, 0.000, 0.000, 18:39:41.930
149, -2708.52, 30450.96, -5486.26, -11861.78, -4156.46, 6.17, 136158.69, 115973.61, 0.000, 0.000, 0.000, 18:39:41.931
150, -2719.25, 30434.22, -5450.52, -11873.58, -4163.03, 104.09, 136136.84, 115929.87, 0.000, 0.000, 0.000, 18:39:41.931
151, -2893.68, 30445.09, -5511.74, -11855.79, -3981.87, 314.60, 136161.25, 115973.77, 0.000, 0.000, 0.000, 18:39:41.931
152, -2733.98, 30466.66, -5633.49, -11832.90, -3858.00, 334.34, 136200.03, 116043.13, 0.000, 0.000, 0.000, 18:39:41.931
153, -2593.29, 30466.52, -5704.97, -11833.93, -3963.57, 154.90, 136202.45, 116044.17, -0.064, 0.990, 0.040, 18:39:41.931
154, -2702.08, 30438.49, -5709.17, -11851.01, -4131.12, 51.48, 136163.36, 115971.38, 0.000, 0.000, 0.000, 18:39:41.931
155, -2707.67, 30419.34, -5725.22, -11861.06, -4143.41, 167.95, 136139.33, 115925.64, 0.000, 0.000, 0.000, 18:39:41.931
156, -2877.61, 30431.21, -5818.18, -11845.35, -3967.64, 343.43, 136164.91, 115970.84, 0.000, 0.000, 0.000, 18:39:41.931
157, -2712.14, 30452.44, -5933.29, -11822.62, -3854.36, 338.43, 136203.61, 116040.22, 0.000, 0.000, 0.000, 18:39:41.931
158, -2579.32, 30450.79, -5966.71, -11821.75, -3969.13, 165.92, 136204.84, 116040.33, 0.000, 0.000, 0.000, 18:39:41.932
159, -2684.53, 30424.75, -5915.95, -11840.63, -4138.27, 61.38, 136168.23, 115970.46, 0.000, 0.000, 0.000, 18:39:41.932
160, -2690.86, 30403.91, -5855.75, -11848.48, -4144.62, 169.40, 136142.55, 115923.16, 0.000, 0.000, 0.000, 18:39:41.932
161, -2869.07, 30415.54, -5873.55, -11831.14, -3954.38, 343.48, 136167.16, 115967.64, 0.000, 0.000, 0.000, 18:39:41.932
162, -2722.62, 30437.53, -5944.42, -11808.34, -3827.76, 334.96, 136206.78, 116038.43, 0.000, 0.000, 0.000, 18:39:41.932
163, -2564.84, 30434.65, -5962.04, -11806.10, -3936.46, 148.82, 136207.06, 116037.91, -0.062, 0.986, 0.044, 18:39:41.932
164, -2657.58, 30408.01, -5891.72, -11824.16, -4106.93, 17.19, 136169.30, 115967.15, 0.000, 0.000, 0.000, 18:39:41.932
165, -2681.29, 30389.61, -5817.15, -11834.33, -4117.97, 109.28, 136146.02, 115922.22, 0.000, 0.000, 0.000, 18:39:41.933
166, -2852.40, 30401.63, -5831.64, -11816.85, -3935.67, 287.26, 136170.80, 115966.91, 0.000, 0.000, 0.000, 18:39:41.933
167, -2721.48, 30422.29, -5901.78, -11792.74, -3817.16, 268.51, 136209.27, 116036.69, 0.000, 0.000, 0.000, 18:39:41.933
168, -2530.82, 30419.70, -5917.58, -11790.75, -3932.81, 70.79, 136210.19, 116036.87, 0.000, 0.000, 0.000, 18:39:41.933
169, -2603.89, 30394.97, -5846.23, -11810.73, -4107.04, -53.22, 136174.83, 115968.36, 0.000, 0.000, 0.000, 18:39:41.933
170, -2670.05, 30376.15, -5765.86, -11820.72, -4117.75, 26.06, 136151.16, 115922.91, 0.000, 0.000, 0.000, 18:39:41.933
171, -2835.81, 30387.51, -5766.21, -11801.77, -3931.69, 183.57, 136174.28, 115965.70, 0.000, 0.000, 0.000, 18:39:41.933
172, -2704.16, 30407.63, -5842.63, -11777.27, -3814.93, 147.72, 136212.22, 116034.74, 0.000, 0.000, 0.000, 18:39:41.933
173, -2526.89, 30405.37, -5893.04, -11776.66, -3922.66, -51.10, 136214.23, 116035.75, -0.062, 0.992, 0.040, 18:39:41.935
174, -2601.83, 30378.77, -5860.14, -11794.81, -4101.68, -183.80, 136176.81, 115965.14, 0.000, 0.000, 0.000, 18:39:41.935
175, -2657.87, 30360.80, -5796.68, -11805.74, -4115.63, -113.39, 136154.06, 115920.55, 0.000, 0.000, 0.000, 18:39:41.935
176, -2840.41, 30373.74, -5811.30, -11789.00, -3924.41, 52.08, 136179.47, 115965.52, 0.000, 0.000, 0.000, 18:39:41.935
177, -2692.92, 30396.23, -5888.57, -11766.14, -3810.39, 45.06, 136219.53, 116036.66, 0.000, 0.000, 0.000, 18:39:41.935
178, -2493.94, 30394.19, -5890.09, -11764.15, -3909.68, -139.56, 136221.19, 116037.60, 0.000, 0.000, 0.000, 18:39:41.935
179, -2551.36, 30367.79, -5787.07, -11782.30, -4090.03, -262.59, 136184.19, 115967.24, 0.000, 0.000, 0.000, 18:39:41.935
180, -2681.23, 30352.28, -5674.57, -11795.48, -4111.65, -165.87, 136163.92, 115924.84, 0.000, 0.000, 0.000, 18:39:41.935
181, -2819.58, 30364.26, -5626.14, -11775.66, -3920.34, 27.67, 136186.97, 115967.28, 0.000, 0.000, 0.000, 18:39:41.935
182, -2702.91, 30382.81, -5592.72, -11748.23, -3794.97, 44.95, 136223.53, 116034.90, 0.000, 0.000, 0.000, 18:39:41.936
183, -2500.24, 30379.80, -5512.19, -11744.99, -3890.79, -118.40, 136225.03, 116035.61, -0.062, 0.990, 0.048, 18:39:41.936
184, -2549.62, 30353.73, -5371.46, -11762.65, -4065.72, -227.12, 136188.03, 115965.34, 0.000, 0.000, 0.000, 18:39:41.936
185, -2629.39, 30333.26, -5217.61, -11770.45, -4081.65, -124.75, 136162.55, 115917.73, 0.000, 0.000, 0.000, 18:39:41.936
186, -2764.96, 30345.20, -5126.35, -11750.96, -3892.91, 69.58, 136185.89, 115960.27, 0.000, 0.000, 0.000, 18:39:41.937
187, -2692.25, 30366.03, -5076.57, -11725.99, -3770.40, 77.09, 136224.88, 116030.23, 0.000, 0.000, 0.000, 18:39:41.937
188, -2477.51, 30363.53, -4990.50, -11724.09, -3875.30, -92.96, 136227.59, 116032.28, 0.000, 0.000, 0.000, 18:39:41.937
189, -2508.29, 30339.54, -4854.66, -11744.32, -4063.30, -209.91, 136192.77, 115964.18, 0.000, 0.000, 0.000, 18:39:41.937
190, -2597.94, 30319.65, -4732.51, -11753.02, -4087.84, -102.35, 136167.67, 115916.91, 0.000, 0.000, 0.000, 18:39:41.938
191, -2765.92, 30332.52, -4641.43, -11735.13, -3892.73, 76.58, 136192.23, 115960.69, 0.000, 0.000, 0.000, 18:39:41.938
192, -2671.53, 30351.30, -4590.42, -11708.16, -3781.42, 69.40, 136229.16, 116028.80, -0.058, 0.984, 0.044, 18:39:41.938
193, -2457.95, 30350.90, -4511.97, -11707.55, -3876.98, -118.55, 136233.36, 116032.46, 0.000, 0.000, 0.000, 18:39:41.938
194, -2501.27, 30325.86, -4408.23, -11726.95, -4069.67, -254.45, 136197.73, 115963.59, 0.000, 0.000, 0.000, 18:39:41.938
195, -2592.47, 30305.07, -4333.38, -11734.91, -4096.72, -179.17, 136171.78, 115915.65, 0.000, 0.000, 0.000, 18:39:41.938
196, -2756.44, 30319.00, -4324.53, -11718.73, -3890.19, -24.88, 136197.09, 115960.35, 0.000, 0.000, 0.000, 18:39:41.940
197, -2650.78, 30341.15, -4360.31, -11696.06, -3786.01, -29.62, 136237.47, 116031.90, 0.000, 0.000, 0.000, 18:39:41.940
198, -2450.69, 30335.92, -4352.04, -11690.92, -3870.56, -211.00, 136236.88, 116031.21, 0.000, 0.000, 0.000, 18:39:41.940
199, -2500.31, 30308.99, -4267.66, -11703.44, -4067.12, -324.30, 136199.03, 115960.31, 0.000, 0.000, 0.000, 18:39:41.940
200, -2589.63, 30289.96, -4244.19, -11706.48, -4094.06, -199.85, 136174.84, 115914.13, 0.000, 0.000, 0.000, 18:39:41.940
201, -2751.75, 30302.71, -4243.28, -11693.96, -3880.80, -13.57, 136199.86, 115958.30, 0.000, 0.000, 0.000, 18:39:41.940
202, -2628.86, 30322.67, -4331.14, -11675.75, -3784.55, -1.21, 136238.33, 116028.26, -0.056, 0.986, 0.042, 18:39:41.940
203, -2438.44, 30322.13, -4368.67, -11676.37, -3859.41, -180.69, 136242.23, 116032.08, 0.000, 0.000, 0.000, 18:39:41.940
204, -2522.55, 30294.73, -4302.42, -11692.13, -4068.84, -328.66, 136204.11, 115960.87, 0.000, 0.000, 0.000, 18:39:41.940
205, -2560.28, 30276.00, -4235.14, -11699.35, -4105.48, -264.29, 136180.53, 115914.98, 0.000, 0.000, 0.000, 18:39:41.940
206, -2726.47, 30289.72, -4242.12, -11686.14, -3879.50, -111.78, 136206.52, 115960.31, 0.000, 0.000, 0.000, 18:39:41.940
207, -2608.14, 30310.57, -4277.14, -11664.64, -3770.05, -107.71, 136245.55, 116030.67, 0.000, 0.000, 0.000, 18:39:41.941
208, -2430.10, 30308.43, -4267.71, -11661.44, -3836.90, -271.80, 136247.69, 116032.70, 0.000, 0.000, 0.000, 18:39:41.941
209, -2528.68, 30283.44, -4224.12, -11674.45, -4021.84, -389.64, 136211.91, 115964.06, 0.000, 0.000, 0.000, 18:39:41.941
210, -2529.44, 30263.08, -4246.79, -11677.49, -4043.86, -283.96, 136186.47, 115916.30, 0.000, 0.000, 0.000, 18:39:41.941
211, -2657.04, 30271.93, -4185.74, -11660.82, -3838.49, -104.11, 136209.47, 115958.32, 0.000, 0.000, 0.000, 18:39:41.941
212, -2513.05, 30292.71, -4245.96, -11645.19, -3729.37, -110.44, 136248.34, 116028.88, -0.062, 0.992, 0.042, 18:39:41.942
213, -2407.19, 30293.34, -4299.65, -11647.78, -3818.28, -301.70, 136252.75, 116033.29, 0.000, 0.000, 0.000, 18:39:41.943
214, -2520.25, 30267.03, -4266.23, -11665.29, -4000.52, -425.35, 136216.06, 115963.55, 0.000, 0.000, 0.000, 18:39:41.943
215, -2539.56, 30246.94, -4249.31, -11674.67, -4025.95, -312.88, 136191.34, 115916.45, 0.000, 0.000, 0.000, 18:39:41.943
216, -2698.62, 30256.91, -4313.57, -11658.58, -3828.52, -111.98, 136214.39, 115958.68, 0.000, 0.000, 0.000, 18:39:41.943
217, -2551.32, 30278.52, -4400.37, -11635.58, -3714.90, -116.32, 136254.11, 116030.07, 0.000, 0.000, 0.000, 18:39:41.943
218, -2374.34, 30277.09, -4414.87, -11634.35, -3795.19, -328.19, 136257.09, 116033.40, 0.000, 0.000, 0.000, 18:39:41.943
219, -2476.82, 30250.07, -4364.11, -11651.90, -3979.08, -456.04, 136219.75, 115963.08, 0.000, 0.000, 0.000, 18:39:41.943
220, -2514.21, 30230.91, -4324.06, -11662.96, -4010.48, -367.51, 136195.97, 115916.92, 0.000, 0.000, 0.000, 18:39:41.943
221, -2679.53, 30242.33, -4350.19, -11646.38, -3815.82, -192.07, 136220.16, 115960.35, 0.000, 0.000, 0.000, 18:39:41.943
222, -2532.30, 30263.77, -4431.17, -11622.91, -3714.68, -182.28, 136259.98, 116031.84, -0.064, 0.990, 0.044, 18:39:41.943
223, -2379.28, 30262.09, -4471.38, -11621.28, -3785.54, -339.70, 136262.78, 116034.79, 0.000, 0.000, 0.000, 18:39:41.943
224, -2485.60, 30235.25, -4454.95, -11639.25, -3980.73, -436.33, 136225.67, 115964.87, 0.000, 0.000, 0.000, 18:39:41.943
225, -2478.00, 30214.46, -4439.97, -11648.43, -4014.80, -314.31, 136199.91, 115916.73, 0.000, 0.000, 0.000, 18:39:42.404
226, -2647.09, 30224.59, -4491.72, -11631.53, -3811.04, -132.19, 136223.33, 115959.17, 0.000, 0.000, 0.000, 18:39:42.404
227, -2508.56, 30246.27, -4579.45, -11608.00, -3702.19, -114.49, 136263.34, 116030.72, 0.000, 0.000, 0.000, 18:39:42.404
228, -2347.49, 30245.26, -4639.31, -11606.75, -3770.94, -297.95, 136266.56, 116034.36, 0.000, 0.000, 0.000, 18:39:42.405
229, -2447.76, 30219.20, -4644.16, -11626.04, -3957.89, -470.15, 136230.25, 115965.49, 0.000, 0.000, 0.000, 18:39:42.405
230, -2480.33, 30198.84, -4656.02, -11636.83, -3990.05, -414.20, 136205.06, 115917.80, 0.000, 0.000, 0.000, 18:39:42.405
231, -2650.96, 30212.32, -4735.26, -11622.24, -3790.36, -258.70, 136230.66, 115962.27, 0.000, 0.000, 0.000, 18:39:42.405
232, -2546.33, 30232.61, -4845.77, -11596.84, -3669.91, -256.87, 136269.13, 116032.44, -0.062, 0.996, 0.038, 18:39:42.405
233, -2338.06, 30230.06, -4903.50, -11593.83, -3744.63, -438.68, 136271.52, 116035.57, 0.000, 0.000, 0.000, 18:39:42.406
234, -2400.73, 30205.97, -4904.58, -11614.19, -3933.08, -591.40, 136236.77, 115968.40, 0.000, 0.000, 0.000, 18:39:42.406
235, -2473.06, 30185.70, -4915.51, -11624.40, -3966.99, -508.64, 136211.33, 115920.50, 0.000, 0.000, 0.000, 18:39:42.406
236, -2656.37, 30196.65, -4978.98, -11606.63, -3773.96, -294.06, 136234.44, 115962.48, 0.000, 0.000, 0.000, 18:39:42.406
237, -2510.70, 30217.54, -5084.93, -11581.65, -3659.34, -271.26, 136273.33, 116033.13, 0.000, 0.000, 0.000, 18:39:42.407
238, -2322.15, 30216.45, -5156.73, -11579.92, -3748.81, -446.45, 136276.69, 116037.06, 0.000, 0.000, 0.000, 18:39:42.407
239, -2417.32, 30191.46, -5167.48, -11599.35, -3934.62, -588.23, 136241.03, 115968.73, 0.000, 0.000, 0.000, 18:39:42.407
240, -2440.05, 30172.51, -5176.75, -11610.61, -3963.34, -518.81, 136216.72, 115921.82, 0.000, 0.000, 0.000, 18:39:42.408
241, -2613.66, 30183.64, -5259.90, -11593.74, -3759.41, -358.03, 136239.91, 115964.02, -0.058, 0.990, 0.040, 18:39:42.408
242, -2519.65, 30203.87, -5353.02, -11568.39, -3642.98, -366.17, 136278.63, 116034.36, 0.000, 0.000, 0.000, 18:39:42.409
243, -2318.79, 30202.55, -5379.71, -11565.82, -3729.66, -570.13, 136281.73, 116038.05, 0.000, 0.000, 0.000, 18:39:42.409
244, -2378.72, 30178.14, -5344.01, -11585.69, -3914.86, -736.71, 136246.94, 115970.70, 0.000, 0.000, 0.000, 18:39:42.410
245, -2466.38, 30156.95, -5321.48, -11594.88, -3945.51, -671.31, 136220.72, 115921.71, 0.000, 0.000, 0.000, 18:39:42.410
246, -2609.23, 30169.15, -5386.75, -11577.60, -3741.66, -486.35, 136244.36, 115963.75, 0.000, 0.000, 0.000, 18:39:42.411
247, -2497.65, 30190.63, -5500.05, -11552.86, -3624.42, -470.10, 136283.50, 116034.61, 0.000, 0.000, 0.000, 18:39:42.411
248, -2293.00, 30189.54, -5562.63, -11551.07, -3702.12, -633.98, 136287.88, 116039.86, 0.000, 0.000, 0.000, 18:39:42.411
249, -2342.62, 30164.77, -5546.50, -11570.25, -3889.63, -776.41, 136252.75, 115971.98, 0.000, 0.000, 0.000, 18:39:42.412
250, -2451.25, 30144.32, -5522.22, -11580.19, -3928.92, -710.27, 136227.02, 115923.34, 0.000, 0.000, 0.000, 18:39:42.412
251, -2587.59, 30155.77, -5575.73, -11562.31, -3737.48, -541.20, 136249.48, 115964.49, -0.064, 0.988, 0.040, 18:39:42.413
252, -2504.78, 30178.56, -5662.95, -11538.95, -3623.26, -552.96, 136289.98, 116036.98, 0.000, 0.000, 0.000, 18:39:42.413
253, -2300.93, 30177.13, -5704.41, -11537.05, -3696.40, -747.58, 136294.20, 116042.07, 0.000, 0.000, 0.000, 18:39:42.414
254, -2343.96, 30153.37, -5680.00, -11557.28, -3887.62, -896.80, 136259.77, 115974.91, 0.000, 0.000, 0.000, 18:39:42.414
255, -2422.17, 30132.59, -5661.74, -11567.16, -3925.23, -815.88, 136234.02, 115926.07, 0.000, 0.000, 0.000, 18:39:42.414
0, -2591.24, 30142.09, -5714.29, -11547.87, -3721.21, -647.78, 136255.30, 115965.80, 0.000, 0.000, 0.000, 18:39:42.415
1, -2490.10, 30162.78, -5783.80, -11521.92, -3602.07, -654.55, 136294.09, 116036.26, 0.000, 0.000, 0.000, 18:39:42.415
2, -2274.31, 30160.97, -5812.82, -11519.13, -3686.29, -842.55, 136298.03, 116040.77, 0.000, 0.000, 0.000, 18:39:42.415
3, -2312.65, 30135.63, -5792.10, -11538.10, -3881.76, -1012.33, 136262.48, 115972.45, 0.000, 0.000, 0.000, 18:39:42.416
4, -2418.79, 30116.52, -5774.68, -11550.13, -3924.68, -966.02, 136238.38, 115925.40, 0.000, 0.000, 0.000, 18:39:42.416
5, -2569.78, 30127.29, -5807.47, -11531.89, -3712.00, -763.74, 136260.50, 115966.01, -0.056, 0.990, 0.046, 18:39:42.416
6, -2465.75, 30148.88, -5869.14, -11507.08, -3587.43, -710.36, 136300.42, 116037.42, 0.000, 0.000, 0.000, 18:39:42.416
7, -2240.29, 30145.51, -5883.56, -11503.01, -3659.45, -881.08, 136302.81, 116040.87, 0.000, 0.000, 0.000, 18:39:42.417
8, -2277.35, 30120.14, -5829.83, -11522.01, -3848.39, -1051.63, 136267.20, 115972.60, 0.000, 0.000, 0.000, 18:39:42.417
9, -2408.20, 30099.62, -5772.27, -11532.05, -3878.50, -971.12, 136241.56, 115923.97, 0.000, 0.000, 0.000, 18:39:42.417
10, -2555.74, 30110.95, -5800.21, -11514.17, -3671.68, -804.35, 136263.78, 115964.73, 0.000, 0.000, 0.000, 18:39:42.418
11, -2471.19, 30132.38, -5871.45, -11489.11, -3541.99, -804.91, 136303.19, 116035.86, 0.000, 0.000, 0.000, 18:39:42.418
12, -2256.77, 30132.38, -5908.97, -11488.06, -3637.81, -1011.51, 136308.95, 116042.74, 0.000, 0.000, 0.000, 18:39:42.419
13, -2274.76, 30107.84, -5891.85, -11508.11, -3831.31, -1208.83, 136273.98, 115975.17, 0.000, 0.000, 0.000, 18:39:42.419
14, -2381.02, 30086.97, -5865.41, -11518.88, -3872.37, -1172.59, 136247.88, 115925.75, 0.000, 0.000, 0.000, 18:39:42.419
15, -2529.28, 30096.15, -5907.81, -11499.23, -3669.64, -986.87, 136267.92, 115964.11, -0.054, 0.988, 0.044, 18:39:42.420
16, -2449.44, 30118.04, -5990.54, -11474.47, -3546.62, -955.60, 136307.53, 116035.55, 0.000, 0.000, 0.000, 18:39:42.420
17, -2227.40, 30117.88, -6016.33, -11472.68, -3632.99, -1120.49, 136312.98, 116042.07, 0.000, 0.000, 0.000, 18:39:42.421
18, -2250.84, 30091.93, -5985.84, -11490.56, -3815.38, -1276.96, 136276.48, 115973.07, 0.000, 0.000, 0.000, 18:39:42.422
19, -2404.91, 30071.68, -5966.53, -11501.45, -3845.75, -1212.27, 136250.95, 115924.26, 0.000, 0.000, 0.000, 18:39:42.422
20, -2520.70, 30083.19, -6016.78, -11483.12, -3635.91, -989.04, 136272.97, 115964.31, 0.000, 0.000, 0.000, 18:39:42.423
21, -2430.64, 30104.20, -6085.49, -11457.37, -3502.12, -935.04, 136311.91, 116034.85, 0.000, 0.000, 0.000, 18:39:42.423
22, -2216.80, 30103.71, -6119.71, -11455.56, -3594.36, -1113.25, 136317.41, 116041.27, 0.000, 0.000, 0.000, 18:39:42.424
23, -2223.46, 30078.76, -6102.41, -11474.40, -3780.44, -1255.94, 136282.09, 115973.25, 0.000, 0.000, 0.000, 18:39:42.424
24, -2352.34, 30058.16, -6090.85, -11484.57, -3812.40, -1144.43, 136256.08, 115923.85, 0.000, 0.000, 0.000, 18:39:42.425
25, -2486.45, 30068.15, -6154.08, -11465.26, -3613.76, -932.49, 136276.77, 115962.57, -0.056, 0.984, 0.040, 18:39:42.425
26, -2421.07, 30090.07, -6242.77, -11440.58, -3480.97, -927.24, 136316.64, 116034.12, 0.000, 0.000, 0.000, 18:39:42.426
27, -2210.30, 30089.45, -6272.70, -11438.30, -3575.23, -1135.33, 136322.06, 116040.89, 0.000, 0.000, 0.000, 18:39:42.427
28, -2210.72, 30065.91, -6245.14, -11458.35, -3757.66, -1325.46, 136287.95, 115974.28, 0.000, 0.000, 0.000, 18:39:42.428
29, -2343.63, 30046.09, -6228.67, -11470.04, -3792.47, -1284.53, 136262.63, 115925.53, 0.000, 0.000, 0.000, 18:39:42.428
30, -2475.54, 30055.63, -6277.87, -11450.60, -3594.27, -1109.59, 136282.78, 115963.71, 0.000, 0.000, 0.000, 18:39:42.429
31, -2406.41, 30077.20, -6371.74, -11425.38, -3455.00, -1070.51, 136322.25, 116034.96, 0.000, 0.000, 0.000, 18:39:42.429
32, -2194.65, 30075.14, -6423.58, -11421.70, -3552.30, -1242.51, 136326.44, 116040.62, 0.000, 0.000, 0.000, 18:39:42.430
33, -2184.17, 30051.79, -6408.74, -11442.21, -3742.87, -1426.76, 136292.75, 115974.55, 0.000, 0.000, 0.000, 18:39:42.430
34, -2313.65, 30032.72, -6402.75, -11454.60, -3785.78, -1394.59, 136267.83, 115926.29, -0.058, 0.982, 0.046, 18:39:42.431
35, -2442.17, 30044.95, -6471.68, -11438.21, -3591.43, -1211.31, 136290.47, 115967.02, 0.000, 0.000, 0.000, 18:39:42.432
36, -2389.22, 30064.95, -6573.11, -11411.86, -3459.09, -1146.20, 136328.83, 116037.22, 0.000, 0.000, 0.000, 18:39:42.432
37, -2177.86, 30063.12, -6630.67, -11408.02, -3558.71, -1255.14, 136333.25, 116043.28, 0.000, 0.000, 0.000, 18:39:42.433
38, -2165.86, 30037.48, -6623.09, -11425.97, -3746.62, -1363.39, 136297.09, 115974.93, 0.000, 0.000, 0.000, 18:39:42.433
39, -2316.09, 30018.19, -6617.39, -11438.13, -3780.24, -1259.19, 136272.34, 115926.72, 0.000, 0.000, 0.000, 18:39:42.433
40, -2451.76, 30030.44, -6676.09, -11421.45, -3581.64, -1058.49, 136295.20, 115967.46, 0.000, 0.000, 0.000, 18:39:42.434
41, -2361.60, 30051.27, -6761.07, -11395.08, -3453.12, -1036.94, 136333.59, 116038.01, 0.000, 0.000, 0.000, 18:39:42.434
42, -2148.87, 30048.75, -6801.64, -11390.99, -3531.26, -1241.64, 136337.33, 116043.50, 0.000, 0.000, 0.000, 18:39:42.434
43, -2168.99, 30023.85, -6781.16, -11410.16, -3723.96, -1451.10, 136301.92, 115975.91, 0.000, 0.000, 0.000, 18:39:42.435
44, -2296.33, 30003.01, -6763.41, -11421.16, -3772.35, -1420.10, 136275.36, 115925.89, -0.060, 0.982, 0.042, 18:39:42.435
45, -2429.88, 30014.05, -6807.58, -11403.79, -3576.97, -1255.27, 136296.97, 115965.23, 0.000, 0.000, 0.000, 18:39:42.435
46, -2355.43, 30034.66, -6881.30, -11377.86, -3454.17, -1239.78, 136335.58, 116035.77, 0.000, 0.000, 0.000, 18:39:42.435
47, -2141.97, 30035.04, -6908.03, -11376.21, -3525.05, -1423.07, 136342.13, 116043.95, 0.000, 0.000, 0.000, 18:39:42.436
48, -2151.51, 30010.21, -6873.68, -11394.81, -3714.44, -1584.05, 136306.75, 115976.29, 0.000, 0.000, 0.000, 18:39:42.436
49, -2276.79, 29989.54, -6848.40, -11405.85, -3760.23, -1495.98, 136280.66, 115926.58, 0.000, 0.000, 0.000, 18:39:42.436
50, -2420.58, 30001.67, -6893.17, -11389.51, -3553.86, -1266.67, 136303.70, 115967.13, 0.000, 0.000, 0.000, 18:39:42.437
51, -2324.34, 30021.39, -6981.14, -11362.26, -3419.17, -1203.10, 136341.41, 116036.66, 0.000, 0.000, 0.000, 18:39:42.437
52, -2109.92, 30018.75, -7028.24, -11357.75, -3505.22, -1366.07, 136344.97, 116041.73, 0.000, 0.000, 0.000, 18:39:42.437
53, -2150.93, 29995.50, -6992.70, -11378.36, -3699.03, -1532.08, 136311.34, 115975.66, 0.000, 0.000, 0.000, 18:39:42.437
54, -2251.98, 29973.51, -6957.85, -11389.15, -3747.00, -1492.92, 136284.38, 115924.70, -0.054, 0.984, 0.042, 18:39:42.438
55, -2415.71, 29982.41, -7017.53, -11372.32, -3544.87, -1322.64, 136305.16, 115962.95, 0.000, 0.000, 0.000, 18:39:42.438
56, -2305.52, 30006.39, -7107.90, -11350.53, -3430.08, -1300.78, 136347.16, 116036.75, 0.000, 0.000, 0.000, 18:39:42.438
57, -2083.45, 30007.57, -7151.46, -11349.81, -3509.89, -1491.46, 136353.64, 116044.89, 0.000, 0.000, 0.000, 18:39:42.438
58, -2145.32, 29981.00, -7123.63, -11367.56, -3707.10, -1656.80, 136316.78, 115975.62, 0.000, 0.000, 0.000, 18:39:42.438
59, -2218.84, 29960.81, -7088.01, -11379.59, -3758.49, -1592.47, 136290.89, 115925.91, 0.000, 0.000, 0.000, 18:39:42.439
60, -2375.39, 29972.21, -7131.73, -11363.36, -3543.18, -1356.13, 136313.30, 115965.63, 0.000, 0.000, 0.000, 18:39:42.439
61, -2303.59, 29993.45, -7206.92, -11337.59, -3410.07, -1282.86, 136352.55, 116036.87, 0.000, 0.000, 0.000, 18:39:42.439
62, -2088.39, 29992.53, -7231.39, -11334.77, -3476.46, -1486.39, 136358.28, 116044.40, 0.000, 0.000, 0.000, 18:39:42.439
63, -2108.08, 29969.46, -7181.75, -11355.33, -3665.73, -1677.77, 136325.09, 115978.99, 0.000, 0.000, 0.000, 18:39:42.439
64, -2244.58, 29950.29, -7122.90, -11368.03, -3712.60, -1586.55, 136300.63, 115930.72, -0.054, 0.992, 0.044, 18:39:42.440
65, -2383.86, 29960.97, -7150.90, -11350.13, -3513.27, -1345.02, 136321.98, 115969.70, 0.000, 0.000, 0.000, 18:39:42.440
66, -2292.44, 29980.62, -7223.95, -11322.59, -3388.68, -1279.66, 136359.73, 116039.50, 0.000, 0.000, 0.000, 18:39:42.440
67, -2063.11, 29979.07, -7232.15, -11318.57, -3467.90, -1463.15, 136364.81, 116046.61, 0.000, 0.000, 0.000, 18:39:42.440
68, -2084.05, 29955.23, -7159.62, -11338.12, -3649.46, -1649.76, 136330.75, 115980.65, 0.000, 0.000, 0.000, 18:39:42.440
69, -2228.96, 29935.11, -7083.98, -11349.86, -3689.36, -1592.03, 136305.00, 115931.48, 0.000, 0.000, 0.000, 18:39:42.441
70, -2369.44, 29944.36, -7100.61, -11330.97, -3489.69, -1378.50, 136324.88, 115968.98, 0.000, 0.000, 0.000, 18:39:42.441
71, -2260.68, 29964.50, -7160.27, -11303.77, -3347.89, -1323.65, 136362.84, 116039.39, 0.000, 0.000, 0.000, 18:39:42.441
72, -2043.44, 29962.83, -7150.14, -11299.07, -3425.00, -1516.32, 136367.47, 116046.32, 0.000, 0.000, 0.000, 18:39:42.441
73, -2078.29, 29937.26, -7068.00, -11316.73, -3606.19, -1712.41, 136332.05, 115978.91, 0.000, 0.000, 0.000, 18:39:42.442
74, -2181.87, 29916.60, -6986.51, -11327.46, -3648.72, -1646.81, 136305.47, 115928.59, -0.058, 0.988, 0.046, 18:39:42.442
75, -2329.34, 29929.46, -6981.03, -11311.73, -3445.61, -1399.96, 136328.94, 115969.63, 0.000, 0.000, 0.000, 18:39:42.442
76, -2258.20, 29950.53, -7027.03, -11285.02, -3287.27, -1302.30, 136368.02, 116041.05, 0.000, 0.000, 0.000, 18:39:42.443
77, -2046.55, 29948.03, -7025.04, -11279.79, -3379.87, -1489.50, 136372.19, 116047.59, 0.000, 0.000, 0.000, 18:39:42.443
78, -2050.37, 29924.27, -6950.83, -11299.30, -3565.82, -1718.83, 136338.28, 115981.88, 0.000, 0.000, 0.000, 18:39:42.443
79, -2156.47, 29904.35, -6887.98, -11311.48, -3611.30, -1681.77, 136312.58, 115932.51, 0.000, 0.000, 0.000, 18:39:42.443
80, -2316.83, 29916.60, -6909.24, -11296.06, -3428.22, -1467.55, 136335.72, 115973.05, 0.000, 0.000, 0.000, 18:39:42.443
81, -2240.90, 29938.02, -6969.47, -11270.35, -3277.53, -1419.81, 136375.31, 116045.09, 0.000, 0.000, 0.000, 18:39:42.444
82, -2022.63, 29937.14, -6979.40, -11266.62, -3375.96, -1594.24, 136381.09, 116053.34, 0.000, 0.000, 0.000, 18:39:42.444
83, -2047.40, 29910.90, -6908.05, -11283.47, -3558.73, -1776.05, 136344.88, 115985.37, -0.060, 0.986, 0.044, 18:39:42.444
84, -2131.62, 29887.68, -6822.94, -11292.95, -3600.80, -1716.03, 136316.44, 115932.91, 0.000, 0.000, 0.000, 18:39:42.444
85, -2331.73, 29898.45, -6807.87, -11278.00, -3418.41, -1493.95, 136339.28, 115973.05, 0.000, 0.000, 0.000, 18:39:42.445
86, -2205.31, 29920.20, -6826.58, -11252.14, -3278.71, -1449.22, 136378.73, 116044.98, 0.000, 0.000, 0.000, 18:39:42.445
87, -1982.58, 29920.94, -6793.12, -11248.11, -3379.11, -1654.95, 136384.34, 116053.02, 0.000, 0.000, 0.000, 18:39:42.445
88, -2044.09, 29898.21, -6714.80, -11268.45, -3578.22, -1859.37, 136351.52, 115988.16, 0.000, 0.000, 0.000, 18:39:42.446
89, -2126.95, 29877.58, -6645.71, -11280.41, -3630.12, -1805.62, 136325.41, 115938.16, 0.000, 0.000, 0.000, 18:39:42.446
90, -2302.52, 29886.65, -6644.30, -11262.42, -3433.09, -1579.82, 136345.66, 115975.60, 0.000, 0.000, 0.000, 18:39:42.886
91, -2197.40, 29906.92, -6688.04, -11235.37, -3294.47, -1519.63, 136384.11, 116046.30, 0.000, 0.000, 0.000, 18:39:42.887
92, -1971.80, 29907.46, -6688.07, -11232.18, -3378.60, -1697.01, 136390.58, 116055.20, 0.000, 0.000, 0.000, 18:39:42.887
93, -2028.89, 29883.59, -6622.13, -11251.24, -3560.74, -1868.34, 136356.66, 115989.48, -0.058, 0.986, 0.044, 18:39:42.888
94, -2123.46, 29862.85, -6553.26, -11262.62, -3601.80, -1767.91, 136330.38, 115938.96, 0.000, 0.000, 0.000, 18:39:42.889
95, -2283.03, 29874.36, -6569.09, -11246.26, -3395.21, -1470.07, 136352.81, 115978.26, 0.000, 0.000, 0.000, 18:39:42.890
96, -2181.49, 29895.64, -6644.66, -11220.06, -3240.02, -1361.82, 136392.42, 116050.09, 0.000, 0.000, 0.000, 18:39:42.890
97, -1951.84, 29894.14, -6671.26, -11214.92, -3332.62, -1533.64, 136397.16, 116057.49, 0.000, 0.000, 0.000, 18:39:42.890
98, -2005.55, 29868.88, -6629.84, -11232.69, -3511.26, -1707.87, 136361.94, 115990.48, 0.000, 0.000, 0.000, 18:39:42.891
99, -2093.75, 29847.51, -6584.09, -11243.87, -3551.76, -1615.49, 136334.84, 115939.03, 0.000, 0.000, 0.000, 18:39:42.891
100, -2264.92, 29859.00, -6595.57, -11228.71, -3367.45, -1375.10, 136357.33, 115978.37, 0.000, 0.000, 0.000, 18:39:42.892
101, -2144.07, 29878.09, -6643.61, -11200.71, -3212.33, -1318.75, 136394.61, 116047.99, 0.000, 0.000, 0.000, 18:39:42.892
102, -1920.73, 29876.66, -6646.69, -11195.45, -3311.81, -1494.59, 136399.19, 116055.23, 0.000, 0.000, 0.000, 18:39:42.893
103, -1988.84, 29852.45, -6585.63, -11214.38, -3498.07, -1666.95, 136365.23, 115989.48, -0.054, 0.986, 0.042, 18:39:42.894
104, -2074.33, 29832.09, -6521.55, -11227.28, -3542.06, -1594.86, 136339.41, 115939.26, 0.000, 0.000, 0.000, 18:39:42.894
105, -2258.69, 29841.03, -6537.75, -11210.05, -3352.85, -1340.01, 136359.63, 115976.38, 0.000, 0.000, 0.000, 18:39:42.894
106, -2146.39, 29862.78, -6611.76, -11184.30, -3197.91, -1222.57, 136399.53, 116048.53, 0.000, 0.000, 0.000, 18:39:42.895
107, -1919.93, 29865.26, -6640.52, -11182.60, -3287.74, -1367.50, 136407.80, 116059.66, 0.000, 0.000, 0.000, 18:39:42.895
108, -1981.46, 29841.54, -6590.88, -11201.67, -3468.41, -1543.92, 136373.73, 115994.02, 0.000, 0.000, 0.000, 18:39:42.895
109, -2068.81, 29819.13, -6541.10, -11212.46, -3516.51, -1496.78, 136345.61, 115941.47, 0.000, 0.000, 0.000, 18:39:42.896
110, -2245.61, 29828.40, -6569.89, -11195.47, -3334.79, -1284.76, 136366.16, 115978.75, 0.000, 0.000, 0.000, 18:39:42.896
111, -2106.63, 29847.33, -6650.74, -11167.53, -3187.05, -1216.74, 136403.45, 116048.38, 0.000, 0.000, 0.000, 18:39:42.896
112, -1906.76, 29849.52, -6668.69, -11164.94, -3288.86, -1415.67, 136410.84, 116058.59, 0.000, 0.000, 0.000, 18:39:42.897
113, -2003.88, 29827.20, -6615.60, -11185.39, -3476.48, -1625.69, 136378.22, 115994.51, -0.052, 0.984, 0.040, 18:39:42.897
114, -2017.56, 29807.66, -6552.99, -11198.49, -3526.64, -1581.30, 136352.41, 115944.30, 0.000, 0.000, 0.000, 18:39:42.897
115, -2187.77, 29816.53, -6570.63, -11182.26, -3341.38, -1359.16, 136372.86, 115981.55, 0.000, 0.000, 0.000, 18:39:42.897
116, -2083.65, 29837.79, -6640.19, -11156.49, -3196.66, -1292.96, 136412.48, 116053.65, 0.000, 0.000, 0.000, 18:39:42.898
117, -1897.80, 29838.37, -6664.73, -11152.36, -3282.42, -1505.81, 136418.45, 116062.75, 0.000, 0.000, 0.000, 18:39:42.898
118, -1993.66, 29813.29, -6637.04, -11169.88, -3459.07, -1748.85, 136383.20, 115996.03, 0.000, 0.000, 0.000, 18:39:42.898
119, -2028.96, 29793.31, -6607.40, -11182.96, -3503.88, -1731.19, 136357.17, 115945.45, 0.000, 0.000, 0.000, 18:39:42.899
120, -2191.63, 29800.98, -6644.44, -11165.19, -3305.91, -1512.12, 136376.23, 115981.25, 0.000, 0.000, 0.000, 18:39:42.899
121, -2087.59, 29824.85, -6710.15, -11141.05, -3146.39, -1435.97, 136418.33, 116055.91, 0.000, 0.000, 0.000, 18:39:42.899
122, -1881.86, 29824.40, -6728.95, -11135.39, -3238.79, -1609.75, 136423.42, 116064.07, 0.000, 0.000, 0.000, 18:39:42.899
123, -1954.70, 29799.93, -6661.98, -11153.50, -3419.17, -1820.97, 136389.11, 115998.09, -0.050, 0.988, 0.044, 18:39:42.900
124, -2000.28, 29781.44, -6591.69, -11167.74, -3466.22, -1789.26, 136364.44, 115948.73, 0.000, 0.000, 0.000, 18:39:42.900
125, -2172.19, 29788.91, -6610.48, -11149.03, -3280.65, -1564.67, 136382.83, 115983.73, 0.000, 0.000, 0.000, 18:39:42.900
126, -2101.98, 29811.79, -6678.37, -11124.17, -3123.46, -1485.03, 136423.95, 116057.45, 0.000, 0.000, 0.000, 18:39:42.900
127, -1875.60, 29811.01, -6694.06, -11118.83, -3222.29, -1660.24, 136429.64, 116066.32, 0.000, 0.000, 0.000, 18:39:42.900
128, -1907.74, 29785.24, -6628.48, -11135.21, -3401.91, -1854.79, 136393.72, 115998.91, 0.000, 0.000, 0.000, 18:39:42.901
129, -1983.47, 29763.49, -6561.15, -11145.96, -3443.84, -1821.76, 136365.53, 115946.12, 0.000, 0.000, 0.000, 18:39:42.901
130, -2151.60, 29773.75, -6570.67, -11129.67, -3261.77, -1626.31, 136386.41, 115983.60, 0.000, 0.000, 0.000, 18:39:42.901
131, -2065.32, 29794.79, -6636.48, -11102.87, -3100.90, -1565.49, 136425.91, 116055.55, 0.000, 0.000, 0.000, 18:39:42.901
132, -1845.34, 29795.21, -6667.06, -11098.56, -3191.85, -1750.36, 136432.70, 116065.84, -0.052, 0.988, 0.040, 18:39:42.901
133, -1910.60, 29772.12, -6614.75, -11118.18, -3378.42, -1968.61, 136399.70, 116001.28, 0.000, 0.000, 0.000, 18:39:42.902
134, -1952.47, 29749.63, -6556.68, -11128.58, -3431.55, -1914.34, 136370.94, 115947.57, 0.000, 0.000, 0.000, 18:39:42.902
135, -2127.42, 29758.55, -6566.79, -11111.34, -3245.92, -1631.45, 136390.88, 115984.05, 0.000, 0.000, 0.000, 18:39:42.902
136, -2039.42, 29780.64, -6616.21, -11085.17, -3092.45, -1512.01, 136431.38, 116057.20, 0.000, 0.000, 0.000, 18:39:42.902
137, -1828.08, 29781.40, -6617.99, -11080.30, -3180.74, -1690.24, 136438.31, 116067.62, 0.000, 0.000, 0.000, 18:39:42.902
138, -1896.03, 29755.85, -6558.38, -11097.04, -3363.51, -1927.90, 136402.80, 116000.72, 0.000, 0.000, 0.000, 18:39:42.903
139, -1953.70, 29732.71, -6502.50, -11107.39, -3416.20, -1925.36, 136373.48, 115946.59, 0.000, 0.000, 0.000, 18:39:42.903
140, -2136.20, 29743.58, -6531.05, -11093.08, -3221.65, -1697.86, 136395.86, 115985.50, 0.000, 0.000, 0.000, 18:39:42.903
141, -2009.11, 29767.47, -6615.80, -11068.92, -3063.49, -1639.95, 136437.81, 116060.34, 0.000, 0.000, 0.000, 18:39:42.904
142, -1803.96, 29769.35, -6639.41, -11064.98, -3157.52, -1878.98, 136445.22, 116071.60, -0.056, 0.988, 0.038, 18:39:42.904
143, -1889.30, 29744.61, -6586.52, -11082.26, -3339.93, -2091.99, 136410.59, 116005.75, 0.000, 0.000, 0.000, 18:39:42.904
144, -1929.00, 29724.36, -6533.39, -11094.87, -3388.19, -2004.53, 136384.28, 115954.66, 0.000, 0.000, 0.000, 18:39:42.904
145, -2108.02, 29733.38, -6566.09, -11078.22, -3202.67, -1717.28, 136404.67, 115991.55, 0.000, 0.000, 0.000, 18:39:42.904
146, -2007.90, 29753.88, -6645.22, -11050.63, -3030.36, -1638.92, 136443.53, 116063.17, 0.000, 0.000, 0.000, 18:39:42.904
147, -1793.48, 29753.30, -6668.20, -11044.06, -3121.06, -1807.99, 136448.91, 116072.18, 0.000, 0.000, 0.000, 18:39:42.904
148, -1874.28, 29729.90, -6623.76, -11063.02, -3303.36, -1987.29, 136415.80, 116007.85, 0.000, 0.000, 0.000, 18:39:42.905
149, -1895.34, 29709.16, -6585.96, -11076.18, -3356.83, -1943.08, 136388.86, 115956.06, 0.000, 0.000, 0.000, 18:39:42.905
150, -2069.70, 29718.30, -6624.94, -11061.03, -3187.16, -1708.90, 136409.70, 115993.23, 0.000, 0.000, 0.000, 18:39:42.905
151, -1942.63, 29738.39, -6711.85, -11033.63, -3029.06, -1643.12, 136448.08, 116064.42, 0.000, 0.000, 0.000, 18:39:42.905
152, -1759.69, 29740.31, -6754.32, -11029.78, -3127.43, -1835.28, 136455.42, 116075.63, -0.054, 0.992, 0.040, 18:39:42.905
153, -1863.29, 29715.91, -6723.02, -11047.71, -3312.06, -2047.62, 136421.13, 116010.04, 0.000, 0.000, 0.000, 18:39:42.906
154, -1886.64, 29694.22, -6697.68, -11059.91, -3364.90, -2037.36, 136393.22, 115957.13, 0.000, 0.000, 0.000, 18:39:42.906
155, -2067.54, 29702.99, -6753.11, -11044.91, -3186.26, -1828.75, 136413.88, 115993.99, 0.000, 0.000, 0.000, 18:39:42.906
156, -1962.75, 29722.81, -6844.31, -11017.69, -3030.85, -1750.57, 136452.50, 116065.30, 0.000, 0.000, 0.000, 18:39:42.907
157, -1742.52, 29724.85, -6872.38, -11014.63, -3124.17, -1936.91, 136460.55, 116077.12, 0.000, 0.000, 0.000, 18:39:42.907
158, -1802.85, 29701.91, -6822.76, -11034.97, -3319.35, -2152.47, 136427.88, 116012.84, 0.000, 0.000, 0.000, 18:39:42.907
159, -1879.85, 29679.63, -6781.56, -11047.44, -3381.06, -2114.16, 136399.44, 115959.15, 0.000, 0.000, 0.000, 18:39:42.908
160, -2053.19, 29688.10, -6817.59, -11031.12, -3185.03, -1887.07, 136418.53, 115994.27, 0.000, 0.000, 0.000, 18:39:42.908
161, -1976.99, 29710.79, -6888.96, -11006.20, -3032.42, -1815.07, 136459.36, 116067.77, 0.000, 0.000, 0.000, 18:39:42.909
162, -1755.44, 29711.68, -6910.24, -11001.95, -3116.17, -1998.51, 136466.88, 116079.13, -0.058, 0.990, 0.042, 18:39:42.909
163, -1796.30, 29687.18, -6862.07, -11020.24, -3300.30, -2171.27, 136432.45, 116013.48, 0.000, 0.000, 0.000, 18:39:42.910
164, -1864.72, 29664.99, -6819.94, -11032.82, -3360.29, -2091.48, 136404.06, 115959.91, 0.000, 0.000, 0.000, 18:39:42.910
165, -2047.35, 29673.41, -6855.01, -11017.82, -3165.28, -1854.73, 136424.00, 115995.70, 0.000, 0.000, 0.000, 18:39:42.911
166, -1914.52, 29694.69, -6936.15, -10993.01, -3025.44, -1787.67, 136464.19, 116068.34, 0.000, 0.000, 0.000, 18:39:42.911
167, -1718.42, 29697.94, -6967.37, -10991.29, -3118.83, -1976.94, 136472.92, 116081.01, 0.000, 0.000, 0.000, 18:39:42.911
168, -1812.23, 29672.30, -6932.77, -11009.11, -3314.05, -2161.35, 136437.48, 116013.87, 0.000, 0.000, 0.000, 18:39:42.911
169, -1862.28, 29650.91, -6898.98, -11022.72, -3381.86, -2083.76, 136410.08, 115960.71, 0.000, 0.000, 0.000, 18:39:42.911
170, -2005.20, 29661.30, -6949.11, -11008.77, -3185.26, -1847.24, 136430.80, 115997.19, 0.000, 0.000, 0.000, 18:39:42.911
171, -1966.89, 29684.30, -7042.03, -10984.25, -3036.06, -1736.57, 136472.14, 116071.17, 0.000, 0.000, 0.000, 18:39:42.911
172, -1768.18, 29684.75, -7092.72, -10979.47, -3099.20, -1837.13, 136480.02, 116082.98, -0.054, 0.992, 0.044, 18:39:42.912
173, -1773.45, 29660.94, -7069.79, -10997.95, -3288.86, -1963.11, 136446.16, 116017.77, 0.000, 0.000, 0.000, 18:39:42.912
174, -1835.46, 29637.94, -7043.86, -11009.82, -3367.27, -1872.76, 136416.73, 115963.15, 0.000, 0.000, 0.000, 18:39:42.912
175, -2009.04, 29645.95, -7093.50, -10994.00, -3174.64, -1621.73, 136435.31, 115997.68, 0.000, 0.000, 0.000, 18:39:42.912
176, -1949.23, 29668.50, -7185.62, -10969.14, -3034.03, -1515.38, 136476.27, 116071.40, 0.000, 0.000, 0.000, 18:39:42.913
177, -1720.46, 29670.17, -7218.43, -10966.08, -3100.37, -1688.58, 136485.00, 116084.41, 0.000, 0.000, 0.000, 18:39:42.913
178, -1750.61, 29645.01, -7179.07, -10984.50, -3290.20, -1884.18, 136450.16, 116018.29, 0.000, 0.000, 0.000, 18:39:42.913
179, -1869.99, 29622.52, -7138.77, -10997.28, -3354.19, -1819.34, 136421.50, 115964.16, 0.000, 0.000, 0.000, 18:39:42.914
180, -2010.63, 29632.53, -7178.13, -10982.19, -3148.89, -1570.81, 136441.66, 116000.16, 0.000, 0.000, 0.000, 18:39:42.914
181, -1918.92, 29653.66, -7260.34, -10955.66, -2998.13, -1490.79, 136480.95, 116072.31, -0.056, 0.982, 0.040, 18:39:42.914
182, -1688.76, 29652.65, -7293.64, -10949.90, -3075.20, -1645.56, 136487.28, 116082.87, 0.000, 0.000, 0.000, 18:39:42.914
183, -1729.06, 29627.35, -7258.24, -10967.75, -3267.27, -1791.45, 136452.23, 116016.68, 0.000, 0.000, 0.000, 18:39:42.915
184, -1796.05, 29605.24, -7219.23, -10980.76, -3335.30, -1673.63, 136423.58, 115962.48, 0.000, 0.000, 0.000, 18:39:42.915
185, -1975.20, 29615.37, -7264.38, -10967.02, -3134.88, -1356.64, 136444.13, 115998.73, 0.000, 0.000, 0.000, 18:39:42.915
186, -1911.28, 29637.47, -7354.60, -10941.89, -2983.64, -1214.21, 136484.63, 116071.84, 0.000, 0.000, 0.000, 18:39:42.915
187, -1673.94, 29638.37, -7374.82, -10937.51, -3059.82, -1364.75, 136492.47, 116083.76, 0.000, 0.000, 0.000, 18:39:42.916
188, -1722.69, 29613.78, -7327.39, -10956.36, -3252.47, -1585.36, 136458.05, 116018.11, 0.000, 0.000, 0.000, 18:39:42.916
189, -1801.04, 29590.54, -7295.50, -10969.27, -3324.73, -1555.30, 136428.47, 115962.73, 0.000, 0.000, 0.000, 18:39:42.917
190, -1978.96, 29599.12, -7344.25, -10954.88, -3126.45, -1291.39, 136447.83, 115997.37, 0.000, 0.000, 0.000, 18:39:42.917
191, -1888.14, 29620.69, -7429.14, -10929.47, -2976.78, -1171.90, 136487.81, 116069.95, -0.056, 0.980, 0.040, 18:39:42.917
192, -1661.32, 29621.00, -7460.01, -10924.55, -3045.47, -1313.25, 136494.98, 116081.01, 0.000, 0.000, 0.000, 18:39:42.917
193, -1702.80, 29597.89, -7409.20, -10944.42, -3236.85, -1505.70, 136462.02, 116016.68, 0.000, 0.000, 0.000, 18:39:42.918
194, -1819.34, 29575.45, -7371.87, -10956.51, -3306.65, -1446.25, 136433.09, 115961.98, 0.000, 0.000, 0.000, 18:39:42.918
195, -1970.51, 29583.49, -7422.54, -10939.70, -3112.61, -1194.32, 136451.34, 115995.58, 0.000, 0.000, 0.000, 18:39:42.918
196, -1880.94, 29605.91, -7512.78, -10915.45, -2967.02, -1113.72, 136492.63, 116069.23, 0.000, 0.000, 0.000, 18:39:42.918
197, -1659.89, 29608.17, -7543.13, -10912.68, -3044.69, -1324.54, 136501.63, 116082.59, 0.000, 0.000, 0.000, 18:39:42.919
198, -1714.29, 29584.21, -7497.02, -10931.54, -3228.87, -1549.36, 136467.78, 116017.51, 0.000, 0.000, 0.000, 18:39:42.919
199, -1793.91, 29563.04, -7459.29, -10945.29, -3291.65, -1503.56, 136440.05, 115964.00, 0.000, 0.000, 0.000, 18:39:42.919
200, -1942.08, 29570.53, -7509.67, -10928.48, -3092.43, -1267.61, 136457.69, 115996.90, 0.000, 0.000, 0.000, 18:39:42.920
201, -1890.11, 29594.45, -7598.54, -10904.34, -2933.31, -1204.74, 136499.80, 116071.73, -0.056, 0.986, 0.044, 18:39:42.920
202, -1678.55, 29594.42, -7622.57, -10898.29, -3003.00, -1400.49, 136507.42, 116083.89, 0.000, 0.000, 0.000, 18:39:42.920
203, -1645.31, 29568.72, -7574.22, -10915.21, -3191.58, -1644.62, 136472.14, 116017.46, 0.000, 0.000, 0.000, 18:39:42.920
204, -1799.52, 29547.33, -7534.82, -10928.86, -3259.13, -1621.55, 136444.39, 115963.84, 0.000, 0.000, 0.000, 18:39:42.921
205, -1929.31, 29555.58, -7582.31, -10911.67, -3065.97, -1385.92, 136462.11, 115996.99, 0.000, 0.000, 0.000, 18:39:42.921
206, -1859.53, 29578.29, -7657.46, -10885.79, -2904.83, -1273.65, 136502.97, 116070.80, 0.000, 0.000, 0.000, 18:39:42.921
207, -1646.70, 29578.02, -7681.22, -10879.60, -2985.77, -1417.30, 136510.56, 116083.06, 0.000, 0.000, 0.000, 18:39:42.922
208, -1620.75, 29554.21, -7648.57, -10898.46, -3179.69, -1598.57, 136477.36, 116018.80, 0.000, 0.000, 0.000, 18:39:42.922
209, -1752.20, 29532.00, -7619.51, -10911.85, -3247.95, -1508.16, 136448.75, 115964.34, 0.000, 0.000, 0.000, 18:39:42.922
210, -1915.08, 29540.60, -7674.38, -10895.96, -3051.24, -1211.51, 136467.23, 115998.27, 0.000, 0.000, 0.000, 18:39:43.364
211, -1854.05, 29564.25, -7757.11, -10870.82, -2885.59, -1088.78, 136508.89, 116072.91, -0.060, 0.980, 0.040, 18:39:43.364
212, -1624.52, 29565.19, -7780.40, -10865.65, -2957.74, -1258.74, 136517.61, 116086.44, 0.000, 0.000, 0.000, 18:39:43.364
213, -1619.23, 29541.18, -7735.71, -10884.11, -3149.09, -1481.41, 136484.06, 116021.89, 0.000, 0.000, 0.000, 18:39:43.364
214, -1760.96, 29518.03, -7685.80, -10895.87, -3216.44, -1436.88, 136454.41, 115966.52, 0.000, 0.000, 0.000, 18:39:43.364
215, -1910.00, 29529.02, -7718.44, -10881.66, -3025.49, -1164.32, 136475.34, 116002.71, 0.000, 0.000, 0.000, 18:39:43.364
216, -1837.00, 29549.09, -7798.05, -10853.49, -2869.29, -1062.74, 136513.98, 116074.30, 0.000, 0.000, 0.000, 18:39:43.364
217, -1616.68, 29549.09, -7815.82, -10847.17, -2959.08, -1253.51, 136521.75, 116087.00, 0.000, 0.000, 0.000, 18:39:43.364
218, -1603.45, 29525.51, -7759.68, -10865.76, -3160.18, -1499.44, 136488.42, 116022.63, 0.000, 0.000, 0.000, 18:39:43.364
219, -1754.52, 29502.02, -7712.83, -10877.43, -3232.15, -1487.20, 136458.36, 115966.61, 0.000, 0.000, 0.000, 18:39:43.364
220, -1867.82, 29512.06, -7747.61, -10861.88, -3032.17, -1237.75, 136477.80, 116001.26, 0.000, 0.000, 0.000, 18:39:43.365
221, -1809.51, 29535.44, -7828.61, -10836.33, -2877.16, -1112.63, 136519.52, 116075.98, -0.058, 0.984, 0.040, 18:39:43.365
222, -1611.47, 29534.54, -7852.73, -10828.79, -2945.83, -1243.92, 136526.78, 116088.14, 0.000, 0.000, 0.000, 18:39:43.365
223, -1575.57, 29510.09, -7798.43, -10846.45, -3133.36, -1406.89, 136492.95, 116023.21, 0.000, 0.000, 0.000, 18:39:43.365
224, -1734.96, 29489.46, -7746.65, -10860.80, -3202.69, -1346.11, 136465.59, 115969.77, 0.000, 0.000, 0.000, 18:39:43.365
225, -1842.03, 29499.34, -7766.98, -10844.98, -2995.02, -1102.84, 136485.09, 116004.27, 0.000, 0.000, 0.000, 18:39:43.366
226, -1783.02, 29520.15, -7832.70, -10816.57, -2833.02, -986.81, 136524.30, 116076.47, 0.000, 0.000, 0.000, 18:39:43.367
227, -1620.93, 29520.89, -7857.82, -10810.62, -2915.87, -1156.41, 136533.25, 116090.35, 0.000, 0.000, 0.000, 18:39:43.367
228, -1555.50, 29497.73, -7805.85, -10829.75, -3112.10, -1370.18, 136500.78, 116026.70, 0.000, 0.000, 0.000, 18:39:43.367
229, -1715.59, 29474.39, -7748.59, -10841.42, -3178.40, -1309.07, 136470.94, 115970.41, 0.000, 0.000, 0.000, 18:39:43.367
230, -1827.52, 29482.69, -7771.48, -10824.26, -2975.80, -1042.98, 136488.75, 116003.13, -0.062, 0.986, 0.036, 18:39:43.367
231, -1771.87, 29504.77, -7839.54, -10797.52, -2806.46, -954.02, 136529.22, 116076.61, 0.000, 0.000, 0.000, 18:39:43.367
232, -1595.96, 29504.55, -7854.72, -10790.21, -2879.31, -1106.88, 136537.44, 116089.91, 0.000, 0.000, 0.000, 18:39:43.367
233, -1529.22, 29479.80, -7801.36, -10807.27, -3070.70, -1296.54, 136503.44, 116025.06, 0.000, 0.000, 0.000, 18:39:43.367
234, -1704.14, 29459.04, -7747.70, -10821.69, -3139.95, -1265.15, 136476.23, 115971.53, 0.000, 0.000, 0.000, 18:39:43.367
235, -1817.87, 29469.21, -7777.54, -10806.11, -2949.65, -1024.43, 136495.55, 116005.73, 0.000, 0.000, 0.000, 18:39:43.367
236, -1718.76, 29490.02, -7861.51, -10778.28, -2792.69, -923.10, 136534.86, 116078.10, 0.000, 0.000, 0.000, 18:39:43.369
237, -1515.83, 29489.64, -7890.50, -10772.47, -2872.27, -1088.40, 136542.75, 116091.23, 0.000, 0.000, 0.000, 18:39:43.369
238, -1551.68, 29467.27, -7839.29, -10793.05, -3062.84, -1249.04, 136511.17, 116028.55, 0.000, 0.000, 0.000, 18:39:43.369
239, -1670.21, 29443.97, -7791.55, -10805.53, -3137.83, -1204.02, 136481.11, 115971.98, 0.000, 0.000, 0.000, 18:39:43.369
240, -1784.74, 29452.09, -7819.85, -10788.72, -2942.16, -981.85, 136498.81, 116004.50, -0.064, 0.992, 0.036, 18:39:43.369
241, -1730.54, 29473.37, -7891.28, -10760.42, -2764.42, -867.25, 136538.38, 116077.16, 0.000, 0.000, 0.000, 18:39:43.369
242, -1536.82, 29477.01, -7915.47, -10756.98, -2844.86, -1025.14, 136550.36, 116094.48, 0.000, 0.000, 0.000, 18:39:43.370
243, -1485.63, 29453.65, -7861.20, -10775.93, -3042.07, -1283.71, 136517.50, 116030.72, 0.000, 0.000, 0.000, 18:39:43.370
244, -1654.65, 29427.90, -7813.88, -10786.33, -3112.86, -1283.97, 136484.91, 115971.80, 0.000, 0.000, 0.000, 18:39:43.370
245, -1796.57, 29438.65, -7851.68, -10772.74, -2926.31, -1065.49, 136504.92, 116006.60, 0.000, 0.000, 0.000, 18:39:43.370
246, -1730.58, 29462.71, -7937.48, -10747.81, -2758.85, -978.09, 136546.75, 116081.59, 0.000, 0.000, 0.000, 18:39:43.370
247, -1534.16, 29461.52, -7963.79, -10739.92, -2827.74, -1156.57, 136553.58, 116093.80, 0.000, 0.000, 0.000, 18:39:43.370
248, -1485.65, 29437.67, -7921.17, -10757.78, -3012.14, -1354.72, 136519.98, 116029.33, 0.000, 0.000, 0.000, 18:39:43.371
249, -1624.44, 29414.60, -7882.90, -10770.57, -3081.39, -1275.17, 136490.28, 115973.01, 0.000, 0.000, 0.000, 18:39:43.371
250, -1769.74, 29423.90, -7919.98, -10755.48, -2893.79, -999.93, 136508.95, 116006.29, -0.064, 0.986, 0.038, 18:39:43.372
251, -1702.91, 29444.82, -8001.16, -10727.76, -2725.80, -895.50, 136548.33, 116078.70, 0.000, 0.000, 0.000, 18:39:43.372
252, -1489.94, 29447.66, -8028.03, -10723.54, -2815.00, -1081.51, 136558.83, 116094.64, 0.000, 0.000, 0.000, 18:39:43.372
253, -1489.52, 29423.86, -7970.39, -10741.96, -3013.89, -1329.53, 136525.41, 116030.09, 0.000, 0.000, 0.000, 18:39:43.373
254, -1597.97, 29399.05, -7915.85, -10754.21, -3085.14, -1343.76, 136494.03, 115971.82, 0.000, 0.000, 0.000, 18:39:43.373
255, -1782.95, 29407.96, -7935.83, -10740.59, -2892.90, -1116.11, 136512.97, 116005.05, 0.000, 0.000, 0.000, 18:39:43.373
0, -1699.94, 29430.74, -7999.60, -10714.51, -2721.64, -983.57, 136553.70, 116078.80, 0.000, 0.000, 0.000, 18:39:43.373
1, -1455.23, 29430.76, -8015.94, -10707.04, -2795.38, -1150.65, 136561.11, 116091.41, 0.000, 0.000, 0.000, 18:39:43.374
2, -1479.22, 29405.13, -7964.57, -10723.85, -2988.43, -1376.04, 136525.84, 116024.91, 0.000, 0.000, 0.000, 18:39:43.374
3, -1597.08, 29382.75, -7909.30, -10737.75, -3059.64, -1332.37, 136496.47, 115968.70, 0.000, 0.000, 0.000, 18:39:43.374
4, -1723.74, 29392.86, -7935.27, -10723.67, -2869.63, -1035.98, 136516.03, 116002.55, -0.058, 0.984, 0.036, 18:39:43.374
5, -1677.32, 29416.50, -8010.10, -10698.04, -2697.90, -881.20, 136557.84, 116077.23, 0.000, 0.000, 0.000, 18:39:43.374
6, -1497.43, 29417.73, -8032.19, -10691.98, -2777.38, -1018.77, 136567.45, 116092.19, 0.000, 0.000, 0.000, 18:39:43.374
7, -1470.36, 29393.33, -7980.51, -10709.59, -2976.78, -1230.84, 136533.48, 116027.25, 0.000, 0.000, 0.000, 18:39:43.374
8, -1570.46, 29370.26, -7924.65, -10723.00, -3048.60, -1194.61, 136503.63, 115970.32, 0.000, 0.000, 0.000, 18:39:43.375
9, -1714.40, 29377.34, -7953.02, -10706.89, -2858.27, -939.80, 136520.22, 116001.33, 0.000, 0.000, 0.000, 18:39:43.375
10, -1664.36, 29398.71, -8020.16, -10679.93, -2698.30, -854.19, 136559.81, 116073.92, 0.000, 0.000, 0.000, 18:39:43.375
11, -1450.34, 29400.50, -8026.73, -10674.66, -2780.87, -1062.29, 136569.63, 116089.44, 0.000, 0.000, 0.000, 18:39:43.375
12, -1424.14, 29374.62, -7962.79, -10691.24, -2982.53, -1354.05, 136534.02, 116023.01, 0.000, 0.000, 0.000, 18:39:43.375
13, -1561.85, 29350.39, -7907.73, -10704.07, -3060.07, -1386.12, 136502.66, 115964.73, 0.000, 0.000, 0.000, 18:39:43.376
14, -1698.37, 29361.09, -7940.70, -10691.84, -2861.94, -1164.86, 136522.81, 115998.82, -0.052, 0.984, 0.036, 18:39:43.376
15, -1641.20, 29383.02, -8011.71, -10665.11, -2695.40, -1074.98, 136562.69, 116071.73, 0.000, 0.000, 0.000, 18:39:43.376
16, -1457.02, 29385.14, -8029.01, -10659.90, -2764.40, -1282.27, 136573.13, 116087.76, 0.000, 0.000, 0.000, 18:39:43.376
17, -1409.55, 29361.90, -7966.94, -10678.88, -2954.92, -1562.88, 136540.39, 116024.19, 0.000, 0.000, 0.000, 18:39:43.377
18, -1542.54, 29337.89, -7910.82, -10692.20, -3036.64, -1596.65, 136509.45, 115966.16, 0.000, 0.000, 0.000, 18:39:43.377
19, -1700.77, 29345.63, -7928.05, -10676.85, -2837.42, -1355.36, 136526.58, 115997.39, 0.000, 0.000, 0.000, 18:39:43.377
20, -1622.11, 29368.47, -7988.18, -10650.43, -2667.39, -1193.96, 136567.36, 116071.24, 0.000, 0.000, 0.000, 18:39:43.377
21, -1404.54, 29368.07, -8009.21, -10642.72, -2746.16, -1335.16, 136575.05, 116084.43, 0.000, 0.000, 0.000, 18:39:43.377
22, -1415.11, 29344.89, -7952.01, -10661.71, -2945.65, -1549.96, 136542.25, 116020.84, 0.000, 0.000, 0.000, 18:39:43.377
23, -1512.45, 29320.15, -7911.15, -10673.83, -3025.00, -1494.59, 136510.53, 115962.14, -0.052, 0.992, 0.040, 18:39:43.377
24, -1658.63, 29328.79, -7938.71, -10659.37, -2819.00, -1220.34, 136528.58, 115994.33, 0.000, 0.000, 0.000, 18:39:43.377
25, -1623.52, 29353.45, -8002.01, -10634.47, -2645.87, -1065.57, 136571.45, 116070.41, 0.000, 0.000, 0.000, 18:39:43.378
26, -1422.69, 29355.19, -8015.94, -10628.41, -2715.71, -1224.92, 136581.67, 116086.66, 0.000, 0.000, 0.000, 18:39:43.378
27, -1367.97, 29329.36, -7959.14, -10644.57, -2911.78, -1497.21, 136546.27, 116020.84, 0.000, 0.000, 0.000, 18:39:43.378
28, -1533.71, 29305.79, -7912.56, -10657.87, -2991.29, -1495.00, 136515.78, 115963.44, 0.000, 0.000, 0.000, 18:39:43.378
29, -1673.14, 29314.47, -7953.64, -10643.50, -2801.03, -1257.29, 136533.75, 115995.55, 0.000, 0.000, 0.000, 18:39:43.378
30, -1603.16, 29335.01, -8043.14, -10615.89, -2643.90, -1161.60, 136573.02, 116067.89, 0.000, 0.000, 0.000, 18:39:43.378
31, -1387.24, 29336.51, -8076.11, -10610.31, -2719.76, -1384.18, 136582.88, 116083.85, 0.000, 0.000, 0.000, 18:39:43.378
32, -1374.12, 29316.10, -8026.60, -10632.12, -2913.10, -1690.84, 136552.80, 116023.27, 0.000, 0.000, 0.000, 18:39:43.378
33, -1465.40, 29292.79, -7979.64, -10645.69, -2987.69, -1678.01, 136522.42, 115965.72, -0.058, 0.990, 0.038, 18:39:43.379
34, -1637.80, 29299.87, -8011.63, -10630.02, -2788.42, -1377.63, 136539.16, 115996.45, 0.000, 0.000, 0.000, 18:39:43.379
35, -1580.36, 29323.03, -8085.39, -10603.94, -2616.67, -1204.31, 136580.69, 116071.27, 0.000, 0.000, 0.000, 18:39:43.379
36, -1347.90, 29325.91, -8107.67, -10599.13, -2687.22, -1357.35, 136592.02, 116088.61, 0.000, 0.000, 0.000, 18:39:43.379
37, -1356.17, 29302.33, -8051.79, -10617.57, -2879.89, -1615.36, 136559.00, 116025.04, 0.000, 0.000, 0.000, 18:39:43.379
38, -1473.43, 29277.74, -8003.69, -10630.09, -2961.52, -1630.67, 136527.33, 115966.21, 0.000, 0.000, 0.000, 18:39:43.380
39, -1623.90, 29284.79, -8042.98, -10614.06, -2770.03, -1352.41, 136543.88, 115996.63, 0.000, 0.000, 0.000, 18:39:43.380
40, -1567.04, 29306.02, -8125.82, -10585.83, -2594.39, -1212.45, 136583.33, 116069.50, 0.000, 0.000, 0.000, 18:39:43.380
41, -1357.67, 29306.82, -8156.82, -10578.48, -2663.68, -1409.88, 136592.56, 116085.08, 0.000, 0.000, 0.000, 18:39:43.380
42, -1343.45, 29282.88, -8104.32, -10596.00, -2853.33, -1666.37, 136559.16, 116021.30, 0.000, 0.000, 0.000, 18:39:43.380
43, -1448.91, 29260.51, -8054.36, -10610.93, -2930.85, -1680.00, 136530.11, 115965.12, -0.058, 0.990, 0.038, 18:39:43.381
44, -1623.70, 29269.25, -8088.20, -10597.34, -2742.02, -1442.69, 136548.77, 115997.91, 0.000, 0.000, 0.000, 18:39:43.381
45, -1555.39, 29293.39, -8173.18, -10572.04, -2568.80, -1283.41, 136591.23, 116073.97, 0.000, 0.000, 0.000, 18:39:43.381
46, -1311.40, 29296.50, -8201.37, -10566.92, -2657.96, -1465.02, 136602.70, 116091.78, 0.000, 0.000, 0.000, 18:39:43.382
47, -1314.82, 29270.93, -8150.03, -10583.13, -2860.31, -1753.90, 136568.02, 116026.70, 0.000, 0.000, 0.000, 18:39:43.382
48, -1456.26, 29246.05, -8101.26, -10595.08, -2933.96, -1771.71, 136536.16, 115967.82, 0.000, 0.000, 0.000, 18:39:43.382
49, -1602.33, 29256.18, -8123.88, -10582.05, -2738.67, -1502.55, 136555.72, 116001.46, 0.000, 0.000, 0.000, 18:39:43.382
50, -1541.87, 29280.54, -8182.15, -10557.33, -2572.44, -1362.92, 136598.72, 116077.90, 0.000, 0.000, 0.000, 18:39:43.383
51, -1318.35, 29284.14, -8194.69, -10553.06, -2646.65, -1563.10, 136610.84, 116096.66, 0.000, 0.000, 0.000, 18:39:43.383
52, -1303.37, 29258.88, -8124.34, -10569.51, -2842.83, -1844.69, 136576.19, 116031.84, 0.000, 0.000, 0.000, 18:39:43.383
53, -1426.22, 29236.51, -8063.23, -10584.53, -2928.23, -1853.43, 136546.84, 115975.35, -0.066, 0.986, 0.042, 18:39:43.383
54, -1596.45, 29245.54, -8090.03, -10571.23, -2741.69, -1581.45, 136565.48, 116007.88, 0.000, 0.000, 0.000, 18:39:43.384
55, -1525.64, 29268.54, -8168.49, -10545.15, -2604.34, -1431.74, 136606.95, 116082.93, 0.000, 0.000, 0.000, 18:39:43.384
56, -1313.30, 29270.26, -8187.35, -10538.71, -2674.41, -1624.32, 136616.94, 116099.74, 0.000, 0.000, 0.000, 18:39:43.384
57, -1324.05, 29245.16, -8125.04, -10555.43, -2870.70, -1919.10, 136582.47, 116035.37, 0.000, 0.000, 0.000, 18:39:43.384
58, -1402.04, 29222.22, -8063.70, -10570.05, -2960.35, -1946.88, 136552.61, 115978.37, 0.000, 0.000, 0.000, 18:39:43.385
59, -1570.34, 29229.35, -8093.45, -10555.45, -2749.15, -1685.30, 136569.52, 116009.20, 0.000, 0.000, 0.000, 18:39:43.385
60, -1493.43, 29251.59, -8168.31, -10528.70, -2584.13, -1539.39, 136610.27, 116083.40, 0.000, 0.000, 0.000, 18:39:43.385
61, -1256.77, 29253.72, -8184.27, -10522.49, -2633.08, -1711.96, 136620.77, 116100.68, 0.000, 0.000, 0.000, 18:39:43.386
62, -1294.55, 29232.13, -8121.77, -10542.74, -2820.54, -2007.81, 136589.73, 116039.62, 0.000, 0.000, 0.000, 18:39:43.386
63, -1366.43, 29210.91, -8073.52, -10559.46, -2911.47, -2031.55, 136561.27, 115983.84, -0.068, 0.984, 0.040, 18:39:43.386
64, -1556.13, 29217.26, -8106.24, -10544.70, -2713.32, -1763.40, 136577.80, 116014.02, 0.000, 0.000, 0.000, 18:39:43.387
65, -1484.07, 29237.67, -8188.38, -10516.43, -2542.58, -1613.59, 136617.17, 116086.84, 0.000, 0.000, 0.000, 18:39:43.387
66, -1245.86, 29241.47, -8228.37, -10511.56, -2609.59, -1791.83, 136628.91, 116105.46, 0.000, 0.000, 0.000, 18:39:43.387
67, -1301.99, 29218.27, -8187.13, -10530.17, -2794.39, -2067.22, 136596.53, 116042.90, 0.000, 0.000, 0.000, 18:39:43.388
68, -1368.84, 29193.14, -8135.79, -10543.00, -2869.79, -2074.82, 136564.58, 115983.49, 0.000, 0.000, 0.000, 18:39:43.388
69, -1558.86, 29198.20, -8171.24, -10527.76, -2682.81, -1786.78, 136580.20, 116012.59, 0.000, 0.000, 0.000, 18:39:43.388
70, -1470.72, 29220.46, -8250.05, -10501.01, -2507.44, -1603.13, 136621.09, 116086.82, 0.000, 0.000, 0.000, 18:39:43.389
71, -1234.11, 29225.33, -8280.16, -10496.20, -2582.36, -1723.21, 136633.34, 116105.80, 0.000, 0.000, 0.000, 18:39:43.389
72, -1308.16, 29201.88, -8226.92, -10514.13, -2772.20, -1949.61, 136600.61, 116043.01, -0.066, 0.980, 0.042, 18:39:43.390
73, -1338.20, 29175.82, -8166.90, -10525.64, -2852.24, -1933.07, 136567.34, 115982.08, 0.000, 0.000, 0.000, 18:39:43.390
74, -1504.21, 29183.96, -8188.90, -10513.66, -2668.04, -1677.03, 136585.83, 116013.66, 0.000, 0.000, 0.000, 18:39:43.846
75, -1430.49, 29207.04, -8258.10, -10488.69, -2495.48, -1557.18, 136627.92, 116088.99, 0.000, 0.000, 0.000, 18:39:43.846
76, -1219.11, 29210.11, -8280.07, -10482.63, -2572.82, -1748.71, 136638.33, 116106.11, 0.000, 0.000, 0.000, 18:39:43.847
77, -1317.34, 29185.77, -8218.56, -10500.00, -2764.37, -2042.82, 136604.72, 116042.56, 0.000, 0.000, 0.000, 18:39:43.847
78, -1328.03, 29160.71, -8161.38, -10512.90, -2843.21, -2097.40, 136572.27, 115982.44, 0.000, 0.000, 0.000, 18:39:43.848
79, -1479.80, 29165.74, -8189.88, -10498.97, -2648.70, -1851.44, 136588.33, 116011.56, 0.000, 0.000, 0.000, 18:39:43.848
80, -1393.05, 29189.61, -8263.71, -10474.65, -2473.91, -1666.88, 136631.19, 116087.60, 0.000, 0.000, 0.000, 18:39:43.849
81, -1205.38, 29193.21, -8288.16, -10468.37, -2547.23, -1802.65, 136641.44, 116104.66, 0.000, 0.000, 0.000, 18:39:43.849
82, -1320.30, 29170.17, -8243.03, -10486.88, -2733.60, -2057.39, 136609.19, 116042.23, -0.066, 0.980, 0.046, 18:39:43.850
83, -1323.36, 29146.58, -8197.93, -10500.89, -2809.75, -2070.98, 136577.95, 115983.58, 0.000, 0.000, 0.000, 18:39:43.850
84, -1469.18, 29152.02, -8233.73, -10487.39, -2636.54, -1816.46, 136594.08, 116012.97, 0.000, 0.000, 0.000, 18:39:43.851
85, -1398.68, 29173.79, -8311.05, -10461.08, -2469.62, -1663.22, 136634.63, 116086.82, 0.000, 0.000, 0.000, 18:39:43.851
86, -1185.40, 29177.61, -8334.05, -10455.05, -2539.67, -1833.04, 136645.31, 116104.44, 0.000, 0.000, 0.000, 18:39:43.852
87, -1287.37, 29155.21, -8279.15, -10474.05, -2723.05, -2113.56, 136613.50, 116042.88, 0.000, 0.000, 0.000, 18:39:43.852
88, -1312.07, 29132.17, -8225.46, -10488.71, -2800.27, -2136.00, 136582.75, 115984.43, 0.000, 0.000, 0.000, 18:39:43.852
89, -1471.57, 29138.58, -8263.46, -10476.13, -2626.93, -1861.77, 136599.91, 116014.55, 0.000, 0.000, 0.000, 18:39:43.852
90, -1380.82, 29160.40, -8351.06, -10449.53, -2446.98, -1654.27, 136640.59, 116088.72, 0.000, 0.000, 0.000, 18:39:43.853
91, -1180.53, 29165.43, -8380.07, -10444.12, -2528.90, -1788.54, 136652.55, 116107.79, 0.000, 0.000, 0.000, 18:39:43.853
92, -1280.87, 29143.21, -8331.21, -10463.39, -2729.46, -2090.60, 136621.20, 116046.66, -0.064, 0.982, 0.042, 18:39:43.854
93, -1294.97, 29120.63, -8284.16, -10479.37, -2809.03, -2153.84, 136591.14, 115988.90, 0.000, 0.000, 0.000, 18:39:43.854
94, -1448.42, 29126.36, -8321.82, -10466.85, -2616.61, -1912.35, 136607.84, 116018.65, 0.000, 0.000, 0.000, 18:39:43.855
95, -1370.88, 29145.94, -8398.80, -10438.40, -2446.42, -1753.81, 136646.36, 116090.66, 0.000, 0.000, 0.000, 18:39:43.855
96, -1163.18, 29152.02, -8421.91, -10433.84, -2528.38, -1923.52, 136659.03, 116110.55, 0.000, 0.000, 0.000, 18:39:43.855
97, -1254.04, 29128.93, -8376.09, -10452.10, -2718.98, -2190.85, 136626.78, 116048.48, 0.000, 0.000, 0.000, 18:39:43.856
98, -1280.06, 29106.06, -8322.63, -10467.48, -2793.83, -2202.59, 136596.47, 115990.30, 0.000, 0.000, 0.000, 18:39:43.857
99, -1460.66, 29114.02, -8346.70, -10455.90, -2603.62, -1917.47, 136614.69, 116021.55, 0.000, 0.000, 0.000, 18:39:43.857
100, -1371.82, 29134.92, -8422.94, -10428.14, -2415.46, -1736.86, 136654.27, 116094.64, 0.000, 0.000, 0.000, 18:39:43.858
101, -1161.37, 29138.47, -8435.44, -10421.34, -2483.44, -1883.83, 136665.17, 116112.68, 0.000, 0.000, 0.000, 18:39:43.859
102, -1257.31, 29116.12, -8391.78, -10440.08, -2671.10, -2156.59, 136633.59, 116051.33, -0.066, 0.984, 0.042, 18:39:43.860
103, -1277.54, 29091.67, -8346.83, -10453.62, -2746.65, -2178.11, 136601.42, 115991.40, 0.000, 0.000, 0.000, 18:39:43.861
104, -1428.70, 29098.77, -8366.68, -10441.33, -2572.19, -1865.12, 136618.58, 116021.38, 0.000, 0.000, 0.000, 18:39:43.861
105, -1383.28, 29119.76, -8433.94, -10413.41, -2384.37, -1625.35, 136658.58, 116094.64, 0.000, 0.000, 0.000, 18:39:43.884
106, -1143.81, 29122.45, -8444.69, -10405.09, -2465.96, -1731.70, 136668.89, 116112.39, 0.000, 0.000, 0.000, 18:39:43.884
107, -1196.96, 29097.30, -8371.93, -10420.56, -2657.31, -1965.50, 136634.95, 116048.95, 0.000, 0.000, 0.000, 18:39:43.884
108, -1240.50, 29072.53, -8297.44, -10434.35, -2720.79, -1981.50, 136603.02, 115989.03, 0.000, 0.000, 0.000, 18:39:43.885
109, -1421.48, 29082.03, -8306.00, -10424.41, -2539.02, -1726.31, 136622.33, 116021.06, 0.000, 0.000, 0.000, 18:39:43.885
110, -1343.81, 29106.40, -8373.14, -10399.86, -2351.45, -1554.59, 136665.41, 116097.59, 0.000, 0.000, 0.000, 18:39:43.885
111, -1122.59, 29109.44, -8379.69, -10392.35, -2432.47, -1709.17, 136676.48, 116116.15, 0.000, 0.000, 0.000, 18:39:43.885
112, -1215.13, 29087.40, -8316.99, -10410.86, -2619.94, -2010.11, 136645.63, 116055.46, -0.064, 0.982, 0.044, 18:39:43.886
113, -1245.37, 29062.32, -8259.73, -10423.67, -2683.93, -2067.80, 136612.98, 115994.93, 0.000, 0.000, 0.000, 18:39:43.886
114, -1419.18, 29066.68, -8287.02, -10409.63, -2519.91, -1817.13, 136628.31, 116022.73, 0.000, 0.000, 0.000, 18:39:43.886
115, -1312.54, 29090.64, -8355.55, -10384.44, -2327.40, -1633.49, 136670.88, 116098.73, 0.000, 0.000, 0.000, 18:39:43.886
116, -1102.97, 29095.58, -8366.75, -10378.18, -2410.28, -1754.39, 136683.02, 116118.63, 0.000, 0.000, 0.000, 18:39:43.887
117, -1190.99, 29071.86, -8299.45, -10395.28, -2599.93, -1991.59, 136650.64, 116056.76, 0.000, 0.000, 0.000, 18:39:43.887
118, -1222.35, 29048.79, -8235.30, -10410.30, -2667.32, -1978.22, 136620.19, 115998.38, 0.000, 0.000, 0.000, 18:39:43.887
119, -1406.53, 29053.33, -8251.01, -10395.48, -2504.04, -1665.38, 136635.05, 116025.76, 0.000, 0.000, 0.000, 18:39:43.887
120, -1320.00, 29074.77, -8326.45, -10368.10, -2315.66, -1455.14, 136675.28, 116099.54, 0.000, 0.000, 0.000, 18:39:43.888
121, -1115.89, 29078.30, -8337.54, -10360.12, -2400.96, -1584.69, 136686.14, 116118.25, -0.068, 0.980, 0.042, 18:39:43.888
122, -1207.42, 29055.21, -8260.96, -10377.00, -2592.78, -1847.24, 136654.27, 116057.12, 0.000, 0.000, 0.000, 18:39:43.888
123, -1214.68, 29032.68, -8193.28, -10392.20, -2651.19, -1882.98, 136624.11, 115999.16, 0.000, 0.000, 0.000, 18:39:43.888
124, -1363.86, 29038.92, -8220.35, -10380.17, -2488.93, -1582.21, 136641.31, 116028.88, 0.000, 0.000, 0.000, 18:39:43.888
125, -1281.92, 29058.12, -8300.83, -10350.98, -2305.78, -1360.80, 136679.73, 116100.97, 0.000, 0.000, 0.000, 18:39:43.889
126, -1068.77, 29063.28, -8316.12, -10344.70, -2398.36, -1502.62, 136692.16, 116121.47, 0.000, 0.000, 0.000, 18:39:43.889
127, -1150.65, 29041.35, -8245.56, -10363.05, -2593.74, -1774.48, 136661.22, 116061.36, 0.000, 0.000, 0.000, 18:39:43.889
128, -1188.69, 29018.29, -8172.38, -10378.23, -2664.75, -1799.40, 136630.47, 116002.69, 0.000, 0.000, 0.000, 18:39:43.889
129, -1364.86, 29023.98, -8194.69, -10365.20, -2503.10, -1526.56, 136646.17, 116030.90, 0.000, 0.000, 0.000, 18:39:43.890
130, -1275.44, 29044.55, -8263.91, -10336.99, -2331.60, -1325.10, 136685.78, 116104.14, 0.000, 0.000, 0.000, 18:39:43.890
131, -1049.73, 29049.31, -8276.72, -10330.51, -2403.66, -1459.70, 136698.33, 116124.66, -0.070, 0.978, 0.040, 18:39:43.890
132, -1138.53, 29028.08, -8216.10, -10349.77, -2584.73, -1722.56, 136668.23, 116065.27, 0.000, 0.000, 0.000, 18:39:43.890
133, -1179.48, 29004.61, -8160.08, -10364.75, -2661.56, -1736.98, 136637.08, 116006.22, 0.000, 0.000, 0.000, 18:39:43.891
134, -1352.59, 29011.63, -8191.15, -10353.01, -2488.55, -1459.14, 136653.94, 116035.32, 0.000, 0.000, 0.000, 18:39:43.891
135, -1284.20, 29033.08, -8283.82, -10325.99, -2322.26, -1261.00, 136694.23, 116108.81, 0.000, 0.000, 0.000, 18:39:43.891
136, -1058.58, 29037.57, -8321.91, -10320.40, -2400.96, -1396.27, 136707.16, 116129.55, 0.000, 0.000, 0.000, 18:39:43.891
137, -1133.28, 29014.80, -8280.07, -10338.51, -2584.20, -1672.42, 136675.58, 116068.54, 0.000, 0.000, 0.000, 18:39:43.891
138, -1173.67, 28989.99, -8235.97, -10352.81, -2659.52, -1722.69, 136643.23, 116007.94, 0.000, 0.000, 0.000, 18:39:43.892
139, -1348.91, 28997.32, -8278.48, -10342.06, -2485.31, -1475.04, 136660.61, 116037.40, 0.000, 0.000, 0.000, 18:39:43.892
140, -1259.19, 29018.17, -8366.86, -10314.21, -2308.76, -1293.47, 136700.09, 116110.29, 0.000, 0.000, 0.000, 18:39:43.892
141, -1032.74, 29021.68, -8391.63, -10306.97, -2381.09, -1461.67, 136711.84, 116130.07, -0.066, 0.982, 0.040, 18:39:43.893
142, -1102.08, 28998.91, -8327.92, -10324.54, -2552.03, -1793.44, 136680.31, 116069.32, 0.000, 0.000, 0.000, 18:39:43.893
143, -1140.18, 28974.36, -8265.92, -10338.67, -2612.32, -1863.67, 136648.08, 116008.77, 0.000, 0.000, 0.000, 18:39:43.893
144, -1328.59, 28980.22, -8294.08, -10327.00, -2446.02, -1626.85, 136664.44, 116036.93, 0.000, 0.000, 0.000, 18:39:43.893
145, -1272.46, 29003.87, -8374.75, -10301.81, -2266.40, -1422.26, 136707.28, 116112.99, 0.000, 0.000, 0.000, 18:39:43.894
146, -1037.84, 29009.08, -8393.39, -10294.59, -2334.55, -1504.88, 136720.39, 116134.30, 0.000, 0.000, 0.000, 18:39:43.894
147, -1108.42, 28984.60, -8334.65, -10309.27, -2502.46, -1695.92, 136687.27, 116072.00, 0.000, 0.000, 0.000, 18:39:43.894
148, -1138.84, 28960.51, -8287.22, -10323.58, -2559.74, -1671.49, 136655.66, 116011.98, 0.000, 0.000, 0.000, 18:39:43.894
149, -1309.50, 28965.83, -8320.46, -10310.59, -2406.88, -1364.04, 136671.17, 116039.48, 0.000, 0.000, 0.000, 18:39:43.894
150, -1259.61, 28989.85, -8397.33, -10285.24, -2215.28, -1156.01, 136714.00, 116115.77, 0.000, 0.000, 0.000, 18:39:43.895
151, -1013.58, 28993.59, -8417.06, -10276.77, -2297.89, -1287.71, 136725.92, 116135.86, -0.064, 0.984, 0.040, 18:39:43.895
152, -1091.97, 28971.08, -8350.88, -10293.56, -2479.23, -1533.20, 136694.88, 116075.48, 0.000, 0.000, 0.000, 18:39:43.895
153, -1126.93, 28946.20, -8288.85, -10306.63, -2524.94, -1518.80, 136662.34, 116014.40, 0.000, 0.000, 0.000, 18:39:43.896
154, -1280.80, 28953.78, -8313.53, -10295.17, -2384.01, -1188.24, 136679.84, 116043.73, 0.000, 0.000, 0.000, 18:39:43.896
155, -1226.91, 28974.41, -8399.83, -10266.74, -2182.69, -924.83, 136719.92, 116117.30, 0.000, 0.000, 0.000, 18:39:43.896
156, -986.27, 28979.44, -8433.51, -10259.92, -2269.10, -1014.37, 136733.13, 116138.88, 0.000, 0.000, 0.000, 18:39:43.896
157, -1049.21, 28957.22, -8382.44, -10277.35, -2461.17, -1240.99, 136702.33, 116079.06, 0.000, 0.000, 0.000, 18:39:43.897
158, -1076.84, 28933.01, -8333.51, -10291.77, -2511.24, -1236.14, 136670.56, 116018.85, 0.000, 0.000, 0.000, 18:39:43.898
159, -1247.47, 28938.18, -8355.42, -10278.47, -2370.00, -956.19, 136685.25, 116045.41, 0.000, 0.000, 0.000, 18:39:43.898
160, -1221.77, 28961.20, -8427.19, -10252.63, -2173.42, -776.01, 136727.06, 116120.80, -0.058, 0.992, 0.038, 18:39:43.898
161, -983.34, 28964.31, -8440.98, -10244.32, -2253.48, -947.67, 136739.16, 116141.31, 0.000, 0.000, 0.000, 18:39:43.898
162, -1027.87, 28940.46, -8372.43, -10260.39, -2440.68, -1265.13, 136706.69, 116080.02, 0.000, 0.000, 0.000, 18:39:43.898
163, -1089.13, 28917.10, -8307.00, -10276.19, -2495.24, -1336.03, 136675.73, 116020.59, 0.000, 0.000, 0.000, 18:39:43.966
164, -1269.42, 28922.24, -8322.98, -10262.56, -2343.98, -1034.01, 136690.48, 116046.92, 0.000, 0.000, 0.000, 18:39:43.966
165, -1199.26, 28943.63, -8388.77, -10234.26, -2129.36, -769.48, 136730.44, 116120.46, 0.000, 0.000, 0.000, 18:39:43.966
166, -962.40, 28947.90, -8410.33, -10226.30, -2208.22, -811.37, 136743.30, 116141.96, 0.000, 0.000, 0.000, 18:39:43.966
167, -1019.04, 28922.98, -8351.44, -10240.67, -2405.29, -998.81, 136709.83, 116079.58, 0.000, 0.000, 0.000, 18:39:43.966
168, -1069.78, 28897.18, -8287.62, -10253.66, -2448.54, -958.58, 136676.44, 116017.58, 0.000, 0.000, 0.000, 18:39:43.966
169, -1262.81, 28904.00, -8311.52, -10241.84, -2315.01, -602.87, 136692.95, 116045.76, 0.000, 0.000, 0.000, 18:39:43.966
170, -1176.44, 28928.95, -8385.12, -10217.07, -2092.44, -361.61, 136736.28, 116122.63, -0.064, 0.984, 0.042, 18:39:43.967
171, -948.72, 28935.65, -8406.02, -10211.44, -2171.40, -476.58, 136751.00, 116145.96, 0.000, 0.000, 0.000, 18:39:43.967
172, -1029.30, 28912.18, -8353.52, -10227.87, -2374.09, -754.17, 136718.98, 116084.97, 0.000, 0.000, 0.000, 18:39:43.967
173, -1046.75, 28887.95, -8295.16, -10242.84, -2422.97, -793.20, 136686.61, 116023.95, 0.000, 0.000, 0.000, 18:39:43.967
174, -1206.59, 28892.67, -8317.24, -10230.10, -2291.21, -434.32, 136701.61, 116050.39, 0.000, 0.000, 0.000, 18:39:43.967
175, -1099.08, 28914.51, -8411.32, -10202.72, -2069.59, -101.77, 136742.22, 116124.48, 0.000, 0.000, 0.000, 18:39:43.967
176, -918.59, 28921.35, -8443.62, -10196.55, -2156.41, -140.79, 136756.48, 116147.28, 0.000, 0.000, 0.000, 18:39:43.968
177, -1032.11, 28897.88, -8386.26, -10212.22, -2353.95, -352.53, 136724.70, 116086.44, 0.000, 0.000, 0.000, 18:39:43.968
178, -1049.12, 28873.78, -8336.71, -10227.02, -2392.82, -344.24, 136692.58, 116025.64, 0.000, 0.000, 0.000, 18:39:43.968
179, -1173.29, 28875.35, -8368.38, -10211.26, -2267.56, 58.47, 136704.58, 116048.91, 0.000, 0.000, 0.000, 18:39:43.968
180, -1054.20, 28898.75, -8449.23, -10185.67, -2036.62, 390.55, 136746.83, 116124.41, -0.062, 0.986, 0.040, 18:39:43.968
181, -912.26, 28904.85, -8481.86, -10178.98, -2118.12, 373.56, 136760.34, 116146.57, 0.000, 0.000, 0.000, 18:39:43.968
182, -1032.09, 28880.04, -8426.18, -10193.13, -2325.86, 223.70, 136727.41, 116084.54, 0.000, 0.000, 0.000, 18:39:43.969
183, -1041.39, 28856.01, -8369.45, -10207.66, -2370.85, 275.75, 136695.59, 116023.79, 0.000, 0.000, 0.000, 18:39:43.969
184, -1169.06, 28861.44, -8395.00, -10195.43, -2250.24, 683.25, 136711.59, 116050.77, 0.000, 0.000, 0.000, 18:39:43.969
185, -1048.50, 28884.60, -8477.93, -10169.06, -2005.24, 987.90, 136753.42, 116126.00, 0.000, 0.000, 0.000, 18:39:43.969
186, -900.78, 28888.49, -8506.00, -10159.92, -2084.34, 901.49, 136764.75, 116146.12, 0.000, 0.000, 0.000, 18:39:43.969
187, -1032.52, 28864.10, -8447.48, -10174.96, -2294.18, 657.28, 136732.41, 116084.83, 0.000, 0.000, 0.000, 18:39:43.969
188, -1026.46, 28840.81, -8382.71, -10190.45, -2342.17, 627.10, 136701.13, 116024.52, 0.000, 0.000, 0.000, 18:39:43.969
189, -1082.23, 28845.57, -8406.02, -10178.40, -2231.93, 908.87, 136715.95, 116050.39, 0.000, 0.000, 0.000, 18:39:43.969
190, -986.23, 28866.96, -8492.66, -10151.29, -2002.07, 1127.71, 136755.86, 116123.81, -0.064, 0.982, 0.044, 18:39:43.969
191, -911.30, 28874.70, -8519.55, -10145.55, -2077.28, 1027.35, 136770.78, 116147.62, 0.000, 0.000, 0.000, 18:39:43.970
192, -1071.72, 28853.06, -8460.00, -10162.62, -2276.01, 810.23, 136741.44, 116089.39, 0.000, 0.000, 0.000, 18:39:43.970
193, -1056.50, 28826.46, -8400.66, -10174.33, -2327.91, 830.88, 136707.06, 116025.95, 0.000, 0.000, 0.000, 18:39:43.970
194, -1079.34, 28828.68, -8425.47, -10159.74, -2218.32, 1198.12, 136719.64, 116049.56, 0.000, 0.000, 0.000, 18:39:44.327
195, -1026.39, 28851.27, -8510.52, -10133.70, -1969.28, 1503.91, 136761.31, 116124.82, 0.000, 0.000, 0.000, 18:39:44.328
196, -866.55, 28857.96, -8537.47, -10126.30, -2037.12, 1446.81, 136775.23, 116147.77, 0.000, 0.000, 0.000, 18:39:44.329
197, -973.33, 28832.99, -8478.49, -10140.29, -2255.56, 1227.65, 136742.17, 116086.10, 0.000, 0.000, 0.000, 18:39:44.329
198, -979.54, 28807.62, -8416.17, -10153.95, -2305.09, 1254.02, 136709.08, 116023.99, 0.000, 0.000, 0.000, 18:39:44.329
199, -1120.18, 28812.40, -8437.34, -10141.32, -2191.68, 1585.77, 136723.52, 116049.38, 0.000, 0.000, 0.000, 18:39:44.329
200, -1030.59, 28835.47, -8517.51, -10116.00, -1939.75, 1770.64, 136765.58, 116125.00, -0.062, 0.984, 0.044, 18:39:44.329
201, -854.73, 28843.43, -8540.18, -10110.12, -2010.92, 1628.17, 136780.95, 116149.49, 0.000, 0.000, 0.000, 18:39:44.329
202, -987.05, 28820.99, -8478.33, -10126.26, -2237.16, 1340.64, 136750.25, 116090.30, 0.000, 0.000, 0.000, 18:39:44.329
203, -992.95, 28795.28, -8418.83, -10139.20, -2285.87, 1297.27, 136716.42, 116027.41, 0.000, 0.000, 0.000, 18:39:44.330
204, -1041.68, 28799.06, -8445.52, -10126.23, -2171.11, 1582.46, 136730.28, 116052.09, 0.000, 0.000, 0.000, 18:39:44.330
205, -970.56, 28822.48, -8530.03, -10101.16, -1912.97, 1829.58, 136772.78, 116128.10, 0.000, 0.000, 0.000, 18:39:44.330
206, -850.06, 28829.93, -8554.88, -10094.47, -1981.01, 1756.29, 136787.55, 116152.20, 0.000, 0.000, 0.000, 18:39:44.330
207, -982.00, 28805.32, -8493.80, -10108.38, -2209.58, 1564.22, 136755.30, 116091.42, 0.000, 0.000, 0.000, 18:39:44.330
208, -968.23, 28779.63, -8430.61, -10121.43, -2263.54, 1602.69, 136722.00, 116029.00, 0.000, 0.000, 0.000, 18:39:44.331
209, -1066.85, 28784.33, -8454.50, -10108.11, -2141.65, 2002.67, 136735.98, 116053.78, -0.062, 0.990, 0.044, 18:39:44.331
210, -1026.53, 28807.40, -8542.41, -10082.11, -1866.01, 2357.80, 136778.66, 116130.02, 0.000, 0.000, 0.000, 18:39:44.331
211, -800.44, 28813.03, -8581.44, -10073.95, -1935.82, 2341.97, 136792.77, 116153.36, 0.000, 0.000, 0.000, 18:39:44.331
212, -895.57, 28789.76, -8531.44, -10089.62, -2185.53, 2118.81, 136761.48, 116093.48, 0.000, 0.000, 0.000, 18:39:44.331
213, -920.02, 28765.87, -8467.56, -10105.40, -2247.83, 2063.40, 136729.73, 116032.38, 0.000, 0.000, 0.000, 18:39:44.332
214, -1059.67, 28771.95, -8492.19, -10094.36, -2134.70, 2377.98, 136745.05, 116058.14, 0.000, 0.000, 0.000, 18:39:44.332
215, -985.98, 28793.85, -8581.50, -10070.47, -1916.01, 2904.50, 136786.30, 116132.73, 0.000, 0.000, 0.000, 18:39:44.332
216, -840.05, 28797.85, -8614.16, -10068.01, -2055.82, 3164.02, 136798.34, 116154.08, 0.000, 0.000, 0.000, 18:39:44.332
217, -965.46, 28775.10, -8560.36, -10093.69, -2280.57, 3107.32, 136767.61, 116094.76, 0.000, 0.000, 0.000, 18:39:44.333
218, -961.10, 28752.46, -8495.05, -10120.91, -2342.89, 3213.11, 136736.69, 116034.45, 0.000, 0.000, 0.000, 18:39:44.333
219, -1070.98, 28757.17, -8515.54, -10120.33, -2237.01, 3622.10, 136751.70, 116059.80, -0.058, 0.988, 0.038, 18:39:44.333
220, -1028.56, 28779.84, -8591.88, -10103.30, -2094.00, 3919.09, 136793.16, 116134.72, 0.000, 0.000, 0.000, 18:39:44.333
221, -835.15, 28785.58, -8612.46, -10104.35, -2169.62, 3825.93, 136806.44, 116157.43, 0.000, 0.000, 0.000, 18:39:44.333
