%OpenBCI Raw EEG Data
%
%Sample Rate = 250.0 Hz
%First Column = SampleIndex
%Last Column = Timestamp 
%Other Columns = EEG data in microvolts followed by Accel Data (in G) interleaved with Aux Data
0, 0.00, 0.00, 0.00, 0.00, 0.00, 0.00, 0.00, 0.00, 0.000, 0.000, 0.000, 19:37:30.600
1, 6566.29, 7633.52, -10674.32, -9935.28, -1110.61, -3477.95, 13009.07, 116220.48, -0.044, 0.982, -0.076, 19:37:30.615
2, 6517.86, 7948.46, -10734.69, -10001.60, -1179.66, -3472.59, 13025.61, 116258.64, 0.000, 0.000, 0.000, 19:37:31.095
3, 6438.71, 7736.97, -10775.66, -10028.42, -1260.73, -3502.45, 13016.22, 116251.35, 0.000, 0.000, 0.000, 19:37:31.095
4, 6429.64, 7271.38, -10745.40, -9984.32, -1254.31, -3493.89, 12993.02, 116208.44, 0.000, 0.000, 0.000, 19:37:31.095
5, 6512.83, 7195.90, -10677.23, -9921.45, -1153.06, -3498.27, 12986.50, 116188.52, 0.000, 0.000, 0.000, 19:37:31.095
6, 6568.08, 7626.10, -10668.71, -9930.14, -1100.35, -3483.77, 13008.85, 116223.77, 0.000, 0.000, 0.000, 19:37:31.096
7, 6520.45, 7951.39, -10725.84, -9997.89, -1162.09, -3462.75, 13027.47, 116263.98, 0.000, 0.000, 0.000, 19:37:31.096
8, 6439.98, 7749.10, -10764.47, -10026.25, -1244.57, -3473.71, 13018.44, 116257.32, -0.044, 0.984, -0.078, 19:37:31.096
9, 6432.30, 7291.54, -10736.75, -9981.75, -1240.34, -3488.88, 12995.30, 116214.92, 0.000, 0.000, 0.000, 19:37:31.096
10, 6511.76, 7222.07, -10668.96, -9919.50, -1135.56, -3505.36, 12990.05, 116196.50, 0.000, 0.000, 0.000, 19:37:31.096
11, 6571.68, 7658.53, -10656.26, -9926.05, -1081.82, -3483.43, 13007.80, 116227.52, 0.000, 0.000, 0.000, 19:37:31.096
12, 6524.45, 7985.14, -10716.57, -9993.06, -1158.98, -3457.86, 13024.18, 116266.17, 0.000, 0.000, 0.000, 19:37:31.097
13, 6439.90, 7778.94, -10759.08, -10022.75, -1249.06, -3472.99, 13016.45, 116261.63, 0.000, 0.000, 0.000, 19:37:31.097
14, 6428.03, 7314.56, -10726.49, -9981.55, -1242.58, -3484.17, 12993.45, 116220.08, 0.000, 0.000, 0.000, 19:37:31.097
15, 6505.18, 7228.31, -10663.86, -9926.23, -1144.03, -3496.86, 12985.83, 116199.41, 0.000, 0.000, 0.000, 19:37:31.097
16, 6565.02, 7648.86, -10656.42, -9935.04, -1093.67, -3476.59, 13003.55, 116230.16, 0.000, 0.000, 0.000, 19:37:31.097
17, 6524.27, 7976.62, -10707.98, -9993.84, -1160.14, -3457.77, 13020.43, 116269.08, -0.038, 0.984, -0.082, 19:37:31.097
18, 6440.19, 7773.65, -10752.40, -10026.12, -1248.61, -3485.13, 13011.98, 116263.76, 0.000, 0.000, 0.000, 19:37:31.097
19, 6428.34, 7305.44, -10728.93, -9984.12, -1251.54, -3488.95, 12988.44, 116221.55, 0.000, 0.000, 0.000, 19:37:31.097
20, 6512.54, 7213.38, -10663.48, -9918.23, -1151.79, -3490.43, 12981.78, 116201.15, 0.000, 0.000, 0.000, 19:37:31.097
21, 6568.75, 7628.78, -10656.69, -9929.36, -1101.99, -3473.37, 13001.14, 116232.95, 0.000, 0.000, 0.000, 19:37:31.097
22, 6526.51, 7955.03, -10717.57, -9993.00, -1172.46, -3466.62, 13020.87, 116274.62, 0.000, 0.000, 0.000, 19:37:31.097
23, 6445.82, 7760.03, -10764.35, -10023.89, -1258.83, -3495.97, 13012.36, 116268.97, 0.000, 0.000, 0.000, 19:37:31.098
24, 6433.55, 7293.62, -10742.18, -9982.92, -1262.99, -3491.36, 12988.98, 116226.59, 0.000, 0.000, 0.000, 19:37:31.098
25, 6510.68, 7194.11, -10678.79, -9923.06, -1173.00, -3488.75, 12981.45, 116205.24, 0.000, 0.000, 0.000, 19:37:31.098
26, 6575.35, 7616.54, -10662.21, -9927.66, -1111.71, -3477.98, 13001.70, 116237.56, 0.000, 0.000, 0.000, 19:37:31.098
27, 6536.86, 7954.56, -10711.96, -9988.37, -1163.50, -3456.50, 13020.47, 116277.75, -0.032, 0.980, -0.080, 19:37:31.098
28, 6456.59, 7762.47, -10753.87, -10016.84, -1244.81, -3467.69, 13013.50, 116273.62, 0.000, 0.000, 0.000, 19:37:31.098
29, 6447.09, 7300.77, -10728.97, -9974.22, -1239.90, -3478.98, 12989.81, 116230.95, 0.000, 0.000, 0.000, 19:37:31.099
30, 6528.21, 7209.80, -10662.88, -9911.12, -1135.83, -3501.47, 12983.90, 116210.91, 0.000, 0.000, 0.000, 19:37:31.099
31, 6589.54, 7636.36, -10650.99, -9918.90, -1079.88, -3485.33, 13004.65, 116243.84, 0.000, 0.000, 0.000, 19:37:31.099
32, 6544.19, 7976.76, -10709.30, -9984.88, -1149.80, -3459.40, 13023.09, 116284.37, 0.000, 0.000, 0.000, 19:37:31.099
33, 6453.17, 7779.37, -10758.23, -10022.23, -1245.69, -3471.47, 13013.95, 116278.91, 0.000, 0.000, 0.000, 19:37:31.099
34, 6444.79, 7315.12, -10727.72, -9976.08, -1239.49, -3477.95, 12990.32, 116236.80, 0.000, 0.000, 0.000, 19:37:31.100
35, 6524.41, 7219.66, -10660.06, -9913.04, -1133.03, -3496.19, 12984.17, 116216.95, 0.000, 0.000, 0.000, 19:37:31.100
36, 6576.35, 7636.25, -10649.85, -9925.34, -1077.58, -3473.71, 13000.11, 116245.30, 0.000, 0.000, 0.000, 19:37:31.100
37, 6529.41, 7975.30, -10703.96, -9990.47, -1143.16, -3451.78, 13017.45, 116285.08, -0.034, 0.982, -0.074, 19:37:31.100
38, 6446.09, 7791.19, -10744.08, -10018.66, -1233.37, -3463.98, 13011.00, 116282.76, 0.000, 0.000, 0.000, 19:37:31.100
39, 6433.59, 7328.56, -10716.48, -9976.61, -1236.36, -3474.06, 12988.98, 116242.66, 0.000, 0.000, 0.000, 19:37:31.100
40, 6512.54, 7227.12, -10647.45, -9912.13, -1140.63, -3489.51, 12979.61, 116219.63, 0.000, 0.000, 0.000, 19:37:31.100
41, 6572.02, 7641.01, -10636.50, -9918.56, -1089.36, -3468.30, 12996.06, 116248.83, 0.000, 0.000, 0.000, 19:37:31.100
42, 6527.94, 7974.27, -10697.10, -9984.90, -1163.39, -3449.14, 13013.95, 116289.57, 0.000, 0.000, 0.000, 19:37:31.100
43, 6457.24, 7791.26, -10737.38, -10009.87, -1250.69, -3472.03, 13006.35, 116286.17, 0.000, 0.000, 0.000, 19:37:31.101
44, 6447.83, 7321.20, -10713.44, -9969.10, -1255.59, -3475.36, 12984.89, 116246.50, 0.000, 0.000, 0.000, 19:37:31.101
45, 6521.43, 7202.87, -10654.99, -9914.23, -1169.09, -3482.29, 12976.89, 116224.33, 0.000, 0.000, 0.000, 19:37:31.101
46, 6580.11, 7607.66, -10646.11, -9919.86, -1113.16, -3465.97, 12994.48, 116253.84, 0.000, 0.000, 0.000, 19:37:31.101
47, 6541.17, 7948.19, -10701.48, -9980.92, -1170.65, -3451.82, 13012.25, 116293.62, -0.032, 0.986, -0.066, 19:37:31.101
48, 6460.41, 7771.21, -10746.83, -10014.18, -1256.70, -3476.28, 13006.75, 116291.56, 0.000, 0.000, 0.000, 19:37:31.101
49, 6441.53, 7304.59, -10727.38, -9980.03, -1259.03, -3478.02, 12985.22, 116251.27, 0.000, 0.000, 0.000, 19:37:31.102
50, 6508.63, 7182.96, -10672.91, -9928.73, -1169.11, -3487.12, 12977.85, 116228.93, 0.000, 0.000, 0.000, 19:37:31.102
51, 6571.70, 7590.67, -10657.78, -9932.47, -1106.03, -3470.56, 12995.44, 116257.55, 0.000, 0.000, 0.000, 19:37:31.102
52, 6533.50, 7941.60, -10709.95, -9994.18, -1162.34, -3454.01, 13015.71, 116299.68, 0.000, 0.000, 0.000, 19:37:31.102
53, 6455.52, 7772.28, -10752.46, -10020.33, -1246.36, -3470.09, 13008.89, 116296.77, 0.000, 0.000, 0.000, 19:37:31.102
54, 6443.49, 7311.50, -10727.58, -9978.85, -1246.71, -3477.35, 12986.72, 116256.07, 0.000, 0.000, 0.000, 19:37:31.102
55, 6516.29, 7200.01, -10665.69, -9919.86, -1154.91, -3492.30, 12978.09, 116232.73, 0.000, 0.000, 0.000, 19:37:31.102
56, 6570.99, 7607.06, -10661.11, -9933.94, -1107.73, -3471.49, 12994.90, 116261.12, 0.000, 0.000, 0.000, 19:37:31.102
57, 6528.41, 7950.49, -10723.92, -10004.66, -1177.76, -3452.34, 13013.39, 116301.84, -0.034, 0.982, -0.066, 19:37:31.102
58, 6444.16, 7778.67, -10769.52, -10040.89, -1262.09, -3484.44, 13008.63, 116301.45, 0.000, 0.000, 0.000, 19:37:31.103
59, 6426.66, 7313.18, -10740.77, -9999.43, -1261.09, -3483.68, 12986.34, 116260.94, 0.000, 0.000, 0.000, 19:37:31.103
60, 6502.44, 7189.46, -10673.45, -9932.27, -1165.31, -3485.82, 12977.40, 116237.07, 0.000, 0.000, 0.000, 19:37:31.103
61, 6562.63, 7590.52, -10659.61, -9935.77, -1107.73, -3470.67, 12995.01, 116265.91, 0.000, 0.000, 0.000, 19:37:31.103
62, 6520.23, 7938.53, -10714.29, -9997.06, -1172.73, -3457.46, 13013.81, 116306.83, 0.000, 0.000, 0.000, 19:37:31.103
63, 6445.28, 7780.19, -10757.54, -10017.02, -1258.27, -3493.24, 13009.03, 116306.63, 0.000, 0.000, 0.000, 19:37:31.103
64, 6432.97, 7318.99, -10733.58, -9972.99, -1266.79, -3493.73, 12985.38, 116265.14, 0.000, 0.000, 0.000, 19:37:31.103
65, 6513.77, 7189.57, -10661.63, -9903.48, -1173.42, -3485.24, 12977.33, 116242.43, 0.000, 0.000, 0.000, 19:37:31.104
66, 6578.01, 7590.74, -10643.70, -9903.88, -1111.26, -3468.45, 12994.50, 116270.87, -0.036, 0.988, -0.064, 19:37:31.104
67, 6533.66, 7943.47, -10699.22, -9969.08, -1173.44, -3460.99, 13014.37, 116313.09, 0.000, 0.000, 0.000, 19:37:31.104
68, 6454.51, 7786.92, -10741.06, -10000.44, -1257.26, -3492.39, 13009.45, 116312.82, 0.000, 0.000, 0.000, 19:37:31.104
69, 6444.45, 7329.92, -10711.27, -9960.52, -1257.11, -3484.66, 12986.27, 116271.52, 0.000, 0.000, 0.000, 19:37:31.131
70, 6520.76, 7200.79, -10645.69, -9902.16, -1160.84, -3488.01, 12976.62, 116246.70, 0.000, 0.000, 0.000, 19:37:31.131
71, 6581.16, 7602.19, -10632.70, -9909.22, -1099.91, -3476.10, 12996.06, 116277.16, 0.000, 0.000, 0.000, 19:37:31.131
72, 6540.86, 7963.59, -10687.62, -9974.38, -1158.76, -3456.97, 13013.16, 116316.98, 0.000, 0.000, 0.000, 19:37:31.132
73, 6466.76, 7815.71, -10726.36, -10002.09, -1240.77, -3465.57, 13005.85, 116315.19, 0.000, 0.000, 0.000, 19:37:31.132
74, 6451.03, 7357.12, -10700.20, -9959.65, -1238.04, -3474.27, 12984.49, 116276.32, 0.000, 0.000, 0.000, 19:37:31.132
75, 6524.43, 7227.32, -10637.33, -9895.83, -1145.59, -3491.81, 12974.92, 116251.82, 0.000, 0.000, 0.000, 19:37:31.132
76, 6590.66, 7632.36, -10622.08, -9899.95, -1083.39, -3473.89, 12991.30, 116279.31, -0.036, 0.986, -0.064, 19:37:31.132
77, 6556.86, 7999.33, -10672.94, -9959.29, -1138.04, -3446.91, 13011.60, 116322.23, 0.000, 0.000, 0.000, 19:37:31.132
78, 6477.42, 7846.04, -10721.24, -9990.94, -1229.41, -3456.76, 13005.67, 116321.58, 0.000, 0.000, 0.000, 19:37:31.132
79, 6457.82, 7378.18, -10705.79, -9954.64, -1239.65, -3467.72, 12982.85, 116281.23, 0.000, 0.000, 0.000, 19:37:31.132
80, 6523.00, 7237.27, -10645.76, -9899.79, -1153.60, -3480.73, 12973.18, 116256.58, 0.000, 0.000, 0.000, 19:37:31.132
81, 6581.45, 7626.33, -10635.59, -9908.44, -1101.40, -3465.35, 12990.81, 116284.99, 0.000, 0.000, 0.000, 19:37:31.133
82, 6539.25, 7978.75, -10694.73, -9977.30, -1167.07, -3445.66, 13009.68, 116326.48, 0.000, 0.000, 0.000, 19:37:31.133
83, 6457.78, 7828.01, -10738.14, -10012.40, -1251.14, -3476.23, 13004.65, 116327.15, 0.000, 0.000, 0.000, 19:37:31.133
84, 6431.56, 7361.68, -10723.23, -9982.11, -1264.51, -3475.63, 12982.85, 116287.80, 0.000, 0.000, 0.000, 19:37:31.133
85, 6493.65, 7196.57, -10672.33, -9933.45, -1193.31, -3472.70, 12972.37, 116261.77, 0.000, 0.000, 0.000, 19:37:31.133
86, 6558.69, 7576.66, -10654.41, -9932.96, -1131.29, -3463.49, 12990.70, 116290.04, -0.040, 0.980, -0.064, 19:37:31.133
87, 6535.56, 7946.60, -10698.30, -9978.18, -1175.23, -3454.71, 13011.78, 116333.07, 0.000, 0.000, 0.000, 19:37:31.133
88, 6463.59, 7807.42, -10742.09, -10007.26, -1262.78, -3490.43, 13006.64, 116333.18, 0.000, 0.000, 0.000, 19:37:31.133
89, 6442.29, 7347.47, -10721.26, -9968.48, -1271.12, -3490.25, 12983.32, 116292.16, 0.000, 0.000, 0.000, 19:37:31.133
90, 6515.47, 7197.89, -10654.61, -9904.35, -1183.01, -3481.55, 12973.58, 116266.75, 0.000, 0.000, 0.000, 19:37:31.134
91, 6584.15, 7589.00, -10636.99, -9904.53, -1122.39, -3469.80, 12992.40, 116295.83, 0.000, 0.000, 0.000, 19:37:31.134
92, 6555.59, 7959.66, -10686.97, -9967.07, -1178.61, -3452.67, 13010.75, 116336.87, 0.000, 0.000, 0.000, 19:37:31.134
93, 6473.67, 7820.99, -10731.79, -10006.96, -1263.12, -3474.24, 13006.26, 116338.37, 0.000, 0.000, 0.000, 19:37:31.134
94, 6448.77, 7361.52, -10712.99, -9976.57, -1267.61, -3479.07, 12983.95, 116298.65, 0.000, 0.000, 0.000, 19:37:31.134
95, 6524.90, 7217.40, -10646.31, -9913.76, -1168.95, -3492.26, 12975.70, 116274.82, 0.000, 0.000, 0.000, 19:37:31.134
96, 6596.67, 7614.88, -10625.93, -9913.71, -1095.62, -3478.78, 12992.71, 116302.27, -0.042, 0.980, -0.062, 19:37:31.134
97, 6563.46, 7990.55, -10681.25, -9983.12, -1150.73, -3447.44, 13011.04, 116343.38, 0.000, 0.000, 0.000, 19:37:31.134
98, 6474.61, 7850.58, -10736.19, -10026.12, -1243.63, -3452.81, 13007.02, 116345.50, 0.000, 0.000, 0.000, 19:37:31.134
99, 6455.76, 7387.23, -10721.51, -9989.08, -1254.18, -3469.01, 12985.56, 116307.16, 0.000, 0.000, 0.000, 19:37:31.134
100, 6525.23, 7233.27, -10664.06, -9928.55, -1168.12, -3488.97, 12977.51, 116283.70, 0.000, 0.000, 0.000, 19:37:31.134
101, 6581.92, 7613.14, -10657.51, -9938.30, -1116.92, -3471.99, 12992.84, 116309.40, 0.000, 0.000, 0.000, 19:37:31.135
102, 6539.58, 7975.91, -10718.35, -10010.79, -1175.28, -3453.34, 13012.54, 116352.20, 0.000, 0.000, 0.000, 19:37:31.135
103, 6450.80, 7837.46, -10769.09, -10050.51, -1262.36, -3472.66, 13007.11, 116353.50, 0.000, 0.000, 0.000, 19:37:31.135
104, 6418.62, 7366.11, -10759.10, -10022.72, -1279.88, -3476.64, 12983.77, 116313.53, 0.000, 0.000, 0.000, 19:37:31.135
105, 6477.40, 7187.23, -10704.23, -9968.74, -1200.76, -3479.56, 12973.31, 116287.38, 0.000, 0.000, 0.000, 19:37:31.135
106, 6548.30, 7561.95, -10680.67, -9961.48, -1127.76, -3469.64, 12990.79, 116314.92, -0.040, 0.988, -0.064, 19:37:31.135
107, 6519.44, 7934.82, -10726.96, -10017.54, -1179.81, -3454.44, 13010.77, 116357.99, 0.000, 0.000, 0.000, 19:37:31.135
108, 6441.53, 7804.13, -10772.42, -10047.98, -1266.00, -3486.29, 13005.72, 116359.80, 0.000, 0.000, 0.000, 19:37:31.135
109, 6419.49, 7341.01, -10755.01, -10009.25, -1278.72, -3489.24, 12982.74, 116319.88, 0.000, 0.000, 0.000, 19:37:31.135
110, 6494.97, 7177.32, -10686.12, -9940.07, -1188.71, -3485.29, 12974.32, 116295.61, 0.000, 0.000, 0.000, 19:37:31.135
111, 6568.51, 7562.29, -10658.14, -9929.78, -1114.01, -3471.72, 12988.71, 116319.84, 0.000, 0.000, 0.000, 19:37:31.135
112, 6541.86, 7948.70, -10701.66, -9985.13, -1158.36, -3449.34, 13009.18, 116363.34, 0.000, 0.000, 0.000, 19:37:31.135
113, 6462.31, 7829.99, -10745.18, -10019.17, -1243.49, -3464.23, 13005.74, 116366.77, 0.000, 0.000, 0.000, 19:37:31.136
114, 6434.26, 7367.11, -10729.51, -9988.10, -1261.89, -3473.53, 12982.09, 116326.32, 0.000, 0.000, 0.000, 19:37:31.136
115, 6509.23, 7203.54, -10659.48, -9917.22, -1165.78, -3487.97, 12971.48, 116299.95, -0.034, 0.988, -0.074, 19:37:31.136
116, 6588.09, 7593.87, -10631.38, -9907.23, -1087.01, -3476.90, 12988.06, 116326.48, 0.000, 0.000, 0.000, 19:37:31.136
117, 6557.71, 7979.15, -10684.56, -9971.65, -1142.60, -3444.54, 13007.15, 116368.66, 0.000, 0.000, 0.000, 19:37:31.136
118, 6471.19, 7853.87, -10737.98, -10015.59, -1239.78, -3457.97, 13005.21, 116373.99, 0.000, 0.000, 0.000, 19:37:31.136
119, 6445.62, 7392.44, -10722.74, -9983.70, -1248.81, -3470.06, 12982.05, 116334.52, 0.000, 0.000, 0.000, 19:37:31.136
120, 6522.33, 7227.73, -10654.16, -9915.99, -1151.27, -3483.52, 12970.96, 116307.70, 0.000, 0.000, 0.000, 19:37:31.136
121, 6587.33, 7602.99, -10642.72, -9923.19, -1098.59, -3467.60, 12986.09, 116332.69, 0.000, 0.000, 0.000, 19:37:31.136
122, 6552.44, 7982.52, -10703.20, -9989.64, -1161.37, -3443.40, 13008.11, 116378.16, 0.000, 0.000, 0.000, 19:37:31.575
123, 6467.86, 7859.36, -10754.16, -10032.83, -1248.48, -3458.13, 13004.20, 116381.82, 0.000, 0.000, 0.000, 19:37:31.575
124, 6439.20, 7391.10, -10738.09, -10000.66, -1257.26, -3468.95, 12982.32, 116343.42, 0.000, 0.000, 0.000, 19:37:31.575
125, 6504.67, 7210.02, -10677.63, -9941.85, -1167.01, -3482.94, 12972.08, 116316.93, -0.038, 0.986, -0.074, 19:37:31.575
126, 6570.59, 7578.36, -10660.64, -9942.77, -1106.61, -3469.68, 12987.23, 116341.41, 0.000, 0.000, 0.000, 19:37:31.575
127, 6536.79, 7960.17, -10718.94, -10009.89, -1171.81, -3446.15, 13006.32, 116383.48, 0.000, 0.000, 0.000, 19:37:31.576
128, 6454.29, 7839.52, -10770.84, -10051.74, -1269.65, -3474.11, 13003.15, 116387.63, 0.000, 0.000, 0.000, 19:37:31.576
129, 6429.93, 7373.08, -10753.45, -10020.38, -1278.77, -3477.39, 12981.29, 116349.30, 0.000, 0.000, 0.000, 19:37:31.576
130, 6499.89, 7190.00, -10686.30, -9956.76, -1185.45, -3477.80, 12967.01, 116318.54, 0.000, 0.000, 0.000, 19:37:31.576
131, 6570.50, 7557.50, -10661.94, -9951.87, -1117.83, -3463.76, 12982.59, 116343.09, 0.000, 0.000, 0.000, 19:37:31.576
132, 6538.65, 7940.10, -10713.06, -10012.93, -1174.87, -3441.77, 13003.28, 116386.78, 0.000, 0.000, 0.000, 19:37:31.577
133, 6459.45, 7834.49, -10759.37, -10044.87, -1264.26, -3468.63, 13002.93, 116393.95, 0.000, 0.000, 0.000, 19:37:31.577
134, 6432.56, 7374.38, -10746.43, -10009.67, -1280.75, -3472.14, 12980.46, 116355.09, 0.000, 0.000, 0.000, 19:37:31.577
135, 6500.29, 7185.71, -10680.71, -9942.99, -1189.58, -3479.72, 12967.90, 116325.78, -0.042, 0.982, -0.070, 19:37:31.577
136, 6573.27, 7556.48, -10656.39, -9936.54, -1116.85, -3466.93, 12982.54, 116349.23, 0.000, 0.000, 0.000, 19:37:31.577
137, 6549.04, 7948.97, -10704.16, -9992.12, -1164.75, -3444.56, 13001.94, 116391.79, 0.000, 0.000, 0.000, 19:37:31.578
138, 6469.47, 7840.41, -10748.55, -10027.24, -1250.65, -3462.20, 12999.84, 116397.51, 0.000, 0.000, 0.000, 19:37:31.578
139, 6443.29, 7376.23, -10730.13, -9992.82, -1266.14, -3468.99, 12977.09, 116358.64, 0.000, 0.000, 0.000, 19:37:31.578
140, 6512.69, 7185.15, -10663.88, -9928.51, -1175.08, -3479.14, 12964.17, 116328.89, 0.000, 0.000, 0.000, 19:37:31.578
141, 6578.25, 7548.70, -10647.79, -9927.28, -1109.92, -3466.69, 12980.17, 116353.30, 0.000, 0.000, 0.000, 19:37:31.578
142, 6545.44, 7938.29, -10705.55, -9993.04, -1169.13, -3447.06, 13002.23, 116398.34, 0.000, 0.000, 0.000, 19:37:31.579
143, 6464.71, 7837.28, -10754.59, -10032.63, -1258.09, -3473.71, 12999.53, 116403.37, 0.000, 0.000, 0.000, 19:37:31.579
144, 6436.34, 7373.91, -10743.77, -10002.47, -1276.42, -3472.95, 12975.43, 116363.00, 0.000, 0.000, 0.000, 19:37:31.579
145, 6499.13, 7174.60, -10684.33, -9945.48, -1191.66, -3474.78, 12961.64, 116332.22, -0.040, 0.986, -0.078, 19:37:31.579
146, 6568.46, 7538.73, -10660.60, -9943.75, -1119.35, -3466.76, 12979.12, 116357.99, 0.000, 0.000, 0.000, 19:37:31.579
147, 6538.04, 7936.46, -10711.02, -10008.10, -1170.09, -3446.04, 12998.77, 116400.39, 0.000, 0.000, 0.000, 19:37:31.579
148, 6447.11, 7835.49, -10767.19, -10056.68, -1259.83, -3469.59, 12996.38, 116405.96, 0.000, 0.000, 0.000, 19:37:31.579
149, 6410.39, 7370.91, -10758.92, -10027.77, -1274.61, -3474.04, 12975.95, 116369.21, 0.000, 0.000, 0.000, 19:37:31.579
150, 6468.17, 7164.20, -10704.79, -9972.03, -1194.57, -3475.16, 12964.62, 116340.52, 0.000, 0.000, 0.000, 19:37:31.580
151, 6541.73, 7522.39, -10679.69, -9962.06, -1120.22, -3465.10, 12979.25, 116362.71, 0.000, 0.000, 0.000, 19:37:31.580
152, 6514.44, 7920.39, -10732.39, -10022.32, -1173.51, -3449.41, 12999.30, 116405.45, 0.000, 0.000, 0.000, 19:37:31.580
153, 6438.62, 7830.40, -10778.23, -10058.69, -1263.52, -3474.60, 12995.59, 116409.71, 0.000, 0.000, 0.000, 19:37:31.580
154, 6413.92, 7371.47, -10758.97, -10021.11, -1280.64, -3474.67, 12972.97, 116370.76, 0.000, 0.000, 0.000, 19:37:31.580
155, 6478.30, 7163.04, -10698.44, -9957.08, -1200.09, -3475.00, 12961.04, 116341.43, -0.034, 0.988, -0.074, 19:37:31.580
156, 6557.47, 7524.42, -10668.31, -9944.11, -1119.69, -3464.88, 12976.17, 116364.27, 0.000, 0.000, 0.000, 19:37:31.580
157, 6541.71, 7938.24, -10707.67, -9995.12, -1156.68, -3445.74, 12997.96, 116408.95, 0.000, 0.000, 0.000, 19:37:31.580
158, 6458.54, 7853.06, -10760.60, -10037.72, -1257.80, -3470.00, 12996.82, 116416.35, 0.000, 0.000, 0.000, 19:37:31.581
159, 6424.67, 7391.32, -10747.32, -10004.28, -1278.97, -3474.87, 12973.26, 116376.81, 0.000, 0.000, 0.000, 19:37:31.581
160, 6491.35, 7187.52, -10680.56, -9937.90, -1186.52, -3473.44, 12959.61, 116345.61, 0.000, 0.000, 0.000, 19:37:31.581
161, 6569.67, 7546.46, -10651.92, -9929.40, -1113.36, -3463.27, 12975.01, 116368.74, 0.000, 0.000, 0.000, 19:37:31.581
162, 6548.26, 7955.95, -10699.94, -9987.47, -1151.11, -3440.20, 12997.79, 116414.50, 0.000, 0.000, 0.000, 19:37:31.581
163, 6471.70, 7874.90, -10749.94, -10023.80, -1238.73, -3453.37, 12996.20, 116421.47, 0.000, 0.000, 0.000, 19:37:31.581
164, 6442.55, 7412.93, -10737.22, -9991.92, -1260.66, -3463.40, 12976.60, 116385.82, -0.028, 0.990, -0.074, 19:37:31.581
165, 6509.19, 7203.85, -10669.78, -9927.44, -1176.28, -3479.47, 12963.09, 116354.86, 0.000, 0.000, 0.000, 19:37:31.581
166, 6586.39, 7560.92, -10638.49, -9917.40, -1100.35, -3466.44, 12976.28, 116375.83, 0.000, 0.000, 0.000, 19:37:31.582
167, 6562.94, 7970.90, -10686.30, -9977.28, -1149.91, -3439.02, 12995.04, 116417.96, 0.000, 0.000, 0.000, 19:37:31.582
168, 6471.81, 7886.92, -10744.59, -10025.18, -1240.54, -3458.31, 12991.73, 116423.59, 0.000, 0.000, 0.000, 19:37:31.582
169, 6431.13, 7419.48, -10741.04, -10003.79, -1263.97, -3465.77, 12971.79, 116388.08, 0.000, 0.000, 0.000, 19:37:31.582
170, 6491.42, 7196.93, -10685.12, -9948.47, -1186.16, -3469.59, 12958.98, 116357.91, 0.000, 0.000, 0.000, 19:37:31.582
171, 6563.05, 7541.95, -10661.80, -9942.64, -1114.10, -3459.40, 12973.29, 116379.52, 0.000, 0.000, 0.000, 19:37:31.582
172, 6539.32, 7946.40, -10714.75, -10002.99, -1168.24, -3441.68, 12995.33, 116424.33, 0.000, 0.000, 0.000, 19:37:31.582
173, 6458.04, 7865.60, -10767.64, -10046.26, -1263.34, -3472.90, 12993.49, 116431.26, 0.000, 0.000, 0.000, 19:37:31.582
174, 6421.72, 7404.86, -10755.46, -10019.39, -1275.79, -3473.75, 12970.23, 116392.03, -0.036, 0.986, -0.082, 19:37:31.583
175, 6485.38, 7182.08, -10688.25, -9954.57, -1194.66, -3467.92, 12958.74, 116362.59, 0.000, 0.000, 0.000, 19:37:31.583
176, 6564.57, 7526.82, -10652.19, -9938.08, -1115.15, -3460.34, 12974.38, 116385.48, 0.000, 0.000, 0.000, 19:37:31.583
177, 6546.78, 7945.04, -10694.30, -9993.26, -1153.66, -3437.94, 12992.89, 116427.23, 0.000, 0.000, 0.000, 19:37:31.583
178, 6465.17, 7873.25, -10746.54, -10036.85, -1248.72, -3455.69, 12990.63, 116434.48, 0.000, 0.000, 0.000, 19:37:31.583
179, 6437.10, 7414.14, -10728.32, -10001.33, -1268.60, -3460.34, 12969.51, 116397.94, 0.000, 0.000, 0.000, 19:37:31.583
180, 6503.20, 7188.14, -10663.84, -9934.43, -1186.07, -3468.79, 12955.72, 116366.33, 0.000, 0.000, 0.000, 19:37:31.583
181, 6582.54, 7533.57, -10635.43, -9923.66, -1113.54, -3463.60, 12971.23, 116389.11, 0.000, 0.000, 0.000, 19:37:31.583
182, 6560.93, 7948.08, -10681.61, -9984.10, -1157.62, -3436.89, 12991.97, 116433.25, 0.000, 0.000, 0.000, 19:37:31.584
183, 6480.22, 7877.27, -10731.36, -10025.18, -1244.68, -3451.09, 12990.43, 116441.43, 0.000, 0.000, 0.000, 19:37:31.584
184, 6450.85, 7418.72, -10717.68, -9991.36, -1266.81, -3458.37, 12968.79, 116404.95, -0.038, 0.986, -0.078, 19:37:31.584
185, 6516.74, 7192.70, -10656.01, -9925.56, -1185.07, -3469.30, 12955.21, 116373.84, 0.000, 0.000, 0.000, 19:37:31.584
186, 6595.46, 7538.42, -10625.84, -9908.53, -1106.41, -3458.46, 12969.17, 116395.21, 0.000, 0.000, 0.000, 19:37:31.584
187, 6578.48, 7959.97, -10667.59, -9959.09, -1140.97, -3433.25, 12990.92, 116440.49, 0.000, 0.000, 0.000, 19:37:31.584
188, 6497.94, 7896.60, -10716.81, -10000.04, -1228.34, -3440.09, 12989.81, 116449.30, 0.000, 0.000, 0.000, 19:37:31.584
189, 6453.02, 7430.08, -10717.13, -9986.02, -1262.07, -3452.25, 12965.64, 116410.34, 0.000, 0.000, 0.000, 19:37:31.584
190, 6509.79, 7196.10, -10656.93, -9928.89, -1181.87, -3466.33, 12952.28, 116379.05, 0.000, 0.000, 0.000, 19:37:31.585
191, 6583.28, 7534.37, -10632.41, -9922.81, -1099.93, -3458.66, 12966.36, 116399.79, 0.000, 0.000, 0.000, 19:37:31.585
192, 6557.53, 7947.94, -10684.22, -9989.46, -1142.06, -3431.66, 12987.86, 116444.59, 0.000, 0.000, 0.000, 19:37:31.585
193, 6469.00, 7880.62, -10741.17, -10038.03, -1240.34, -3453.97, 12985.54, 116452.09, 0.000, 0.000, 0.000, 19:37:31.585
194, 6428.65, 7420.42, -10738.16, -10014.43, -1263.70, -3465.46, 12964.15, 116415.66, -0.036, 0.986, -0.072, 19:37:31.585
195, 6491.24, 7182.44, -10675.21, -9948.92, -1178.74, -3468.07, 12951.90, 116385.22, 0.000, 0.000, 0.000, 19:37:31.585
196, 6563.97, 7511.33, -10649.13, -9939.24, -1104.33, -3458.51, 12967.32, 116406.74, 0.000, 0.000, 0.000, 19:37:31.585
197, 6539.52, 7925.66, -10695.24, -9999.57, -1149.04, -3431.80, 12988.08, 116450.46, 0.000, 0.000, 0.000, 19:37:31.585
198, 6462.74, 7867.50, -10742.09, -10035.06, -1233.95, -3449.19, 12985.20, 116457.63, 0.000, 0.000, 0.000, 19:37:31.586
199, 6432.97, 7413.92, -10729.08, -10000.33, -1253.66, -3456.90, 12962.65, 116419.95, 0.000, 0.000, 0.000, 19:37:31.586
200, 6499.28, 7178.89, -10657.31, -9926.43, -1165.98, -3468.66, 12950.00, 116388.95, 0.000, 0.000, 0.000, 19:37:31.586
201, 6576.62, 7514.12, -10622.89, -9909.56, -1081.29, -3459.36, 12964.37, 116409.52, 0.000, 0.000, 0.000, 19:37:31.586
202, 6559.63, 7938.42, -10669.69, -9968.36, -1125.83, -3429.18, 12984.89, 116453.12, 0.000, 0.000, 0.000, 19:37:31.586
203, 6483.86, 7888.06, -10722.62, -10011.06, -1222.55, -3437.94, 12984.66, 116463.13, 0.000, 0.000, 0.000, 19:37:31.586
204, 6451.81, 7432.74, -10711.13, -9978.76, -1248.57, -3448.18, 12961.96, 116425.83, -0.032, 0.978, -0.074, 19:37:31.586
205, 6509.70, 7187.31, -10650.09, -9913.92, -1169.87, -3461.64, 12946.38, 116392.01, 0.000, 0.000, 0.000, 19:37:31.586
206, 6586.30, 7510.43, -10621.24, -9905.20, -1093.25, -3454.10, 12959.72, 116411.63, 0.000, 0.000, 0.000, 19:37:31.587
207, 6572.84, 7936.61, -10661.87, -9960.27, -1128.56, -3429.50, 12983.52, 116458.69, 0.000, 0.000, 0.000, 19:37:31.587
208, 6493.09, 7891.82, -10712.36, -10002.83, -1220.16, -3441.70, 12983.90, 116469.46, 0.000, 0.000, 0.000, 19:37:31.587
209, 6448.03, 7432.42, -10708.21, -9986.27, -1251.61, -3453.32, 12961.53, 116432.83, 0.000, 0.000, 0.000, 19:37:31.587
210, 6507.00, 7177.97, -10643.07, -9920.73, -1171.37, -3461.66, 12946.67, 116399.37, 0.000, 0.000, 0.000, 19:37:31.587
211, 6591.17, 7506.05, -10608.18, -9901.53, -1082.83, -3454.80, 12959.90, 116418.14, 0.000, 0.000, 0.000, 19:37:31.587
212, 6569.33, 7932.19, -10659.01, -9962.26, -1125.81, -3425.45, 12980.95, 116462.40, 0.000, 0.000, 0.000, 19:37:31.587
213, 6484.44, 7881.74, -10719.02, -10014.88, -1225.37, -3442.41, 12982.65, 116474.76, -0.040, 0.974, -0.078, 19:37:31.588
214, 6442.24, 7422.54, -10718.67, -9997.96, -1264.04, -3455.11, 12960.19, 116437.74, 0.000, 0.000, 0.000, 19:37:31.589
215, 6505.03, 7172.09, -10654.16, -9931.44, -1172.77, -3461.44, 12945.77, 116404.46, 0.000, 0.000, 0.000, 19:37:31.589
216, 6579.77, 7493.71, -10623.92, -9921.98, -1086.38, -3452.70, 12959.83, 116423.95, 0.000, 0.000, 0.000, 19:37:31.589
217, 6558.54, 7918.84, -10671.48, -9988.52, -1127.04, -3422.97, 12981.42, 116468.52, 0.000, 0.000, 0.000, 19:37:31.593
218, 6472.04, 7872.80, -10727.96, -10041.39, -1221.39, -3434.99, 12981.31, 116478.87, 0.000, 0.000, 0.000, 19:37:31.594
219, 6431.47, 7416.20, -10722.67, -10016.00, -1245.91, -3447.47, 12961.62, 116444.38, 0.000, 0.000, 0.000, 19:37:31.594
220, 6494.99, 7163.42, -10658.00, -9947.51, -1160.19, -3460.41, 12947.43, 116411.19, 0.000, 0.000, 0.000, 19:37:31.594
221, 6571.39, 7482.89, -10626.20, -9936.83, -1078.78, -3454.37, 12960.35, 116429.54, 0.000, 0.000, 0.000, 19:37:31.594
222, 6548.75, 7913.95, -10674.25, -9996.57, -1118.24, -3428.44, 12982.88, 116475.52, 0.000, 0.000, 0.000, 19:37:31.594
223, 6464.26, 7875.55, -10729.04, -10041.30, -1214.37, -3439.49, 12981.54, 116485.45, -0.042, 0.984, -0.084, 19:37:31.594
224, 6432.41, 7427.40, -10714.89, -10003.23, -1240.23, -3443.71, 12959.94, 116449.81, 0.000, 0.000, 0.000, 19:37:31.595
225, 6493.47, 7174.13, -10651.10, -9934.23, -1163.01, -3455.15, 12942.64, 116414.05, 0.000, 0.000, 0.000, 19:37:31.595
226, 6574.16, 7489.24, -10620.54, -9917.07, -1090.68, -3447.24, 12954.71, 116432.00, 0.000, 0.000, 0.000, 19:37:31.595
227, 6562.25, 7922.42, -10663.17, -9972.88, -1126.66, -3424.96, 12977.09, 116477.95, 0.000, 0.000, 0.000, 19:37:31.595
228, 6478.34, 7889.81, -10720.83, -10019.97, -1221.61, -3441.03, 12978.21, 116490.52, 0.000, 0.000, 0.000, 19:37:31.595
229, 6440.52, 7438.33, -10714.40, -9989.46, -1252.39, -3450.57, 12955.96, 116454.30, 0.000, 0.000, 0.000, 19:37:31.595
230, 6500.80, 7168.87, -10649.33, -9921.65, -1179.86, -3449.08, 12939.51, 116419.46, 0.000, 0.000, 0.000, 19:37:31.596
231, 6581.23, 7474.04, -10615.49, -9906.96, -1094.99, -3443.26, 12950.94, 116436.07, 0.000, 0.000, 0.000, 19:37:31.596
232, 6566.45, 7905.83, -10664.78, -9968.41, -1128.79, -3426.79, 12974.61, 116482.83, 0.000, 0.000, 0.000, 19:37:31.596
233, 6485.87, 7879.17, -10723.03, -10017.13, -1215.87, -3449.70, 12975.21, 116494.56, -0.036, 0.984, -0.084, 19:37:31.596
234, 6446.42, 7432.74, -10718.80, -9991.99, -1244.34, -3458.46, 12955.85, 116460.97, 0.000, 0.000, 0.000, 19:37:31.596
235, 6500.67, 7162.59, -10658.54, -9928.11, -1170.76, -3455.94, 12940.65, 116426.41, 0.000, 0.000, 0.000, 19:37:31.597
236, 6574.01, 7467.85, -10629.19, -9920.31, -1089.09, -3448.47, 12953.42, 116443.80, 0.000, 0.000, 0.000, 19:37:31.597
237, 6558.94, 7902.59, -10677.32, -9983.83, -1121.77, -3423.97, 12975.28, 116488.41, 0.000, 0.000, 0.000, 19:37:31.597
238, 6474.27, 7874.90, -10742.29, -10038.82, -1221.34, -3444.52, 12975.59, 116499.86, 0.000, 0.000, 0.000, 19:37:31.597
239, 6435.11, 7427.40, -10740.59, -10019.21, -1249.06, -3454.98, 12954.71, 116464.86, 0.000, 0.000, 0.000, 19:37:31.597
240, 6492.89, 7163.26, -10678.03, -9956.32, -1160.66, -3460.30, 12940.18, 116430.92, 0.000, 0.000, 0.000, 19:37:31.597
241, 6568.42, 7471.83, -10647.57, -9943.67, -1074.94, -3455.27, 12953.35, 116448.65, 0.000, 0.000, 0.000, 19:37:31.598
242, 6548.39, 7910.06, -10697.52, -10007.64, -1114.66, -3426.34, 12976.44, 116494.90, 0.000, 0.000, 0.000, 19:37:32.106
243, 6464.42, 7890.93, -10754.34, -10055.98, -1213.30, -3431.82, 12976.66, 116506.66, -0.038, 0.986, -0.086, 19:37:32.106
244, 6426.64, 7443.98, -10746.63, -10025.65, -1246.76, -3441.83, 12953.46, 116469.55, 0.000, 0.000, 0.000, 19:37:32.106
245, 6482.56, 7170.95, -10684.27, -9956.56, -1173.73, -3458.02, 12939.96, 116436.85, 0.000, 0.000, 0.000, 19:37:32.106
246, 6560.46, 7469.46, -10653.94, -9943.98, -1094.94, -3451.85, 12953.48, 116454.95, 0.000, 0.000, 0.000, 19:37:32.106
247, 6546.89, 7904.90, -10698.64, -9999.50, -1131.71, -3424.38, 12973.04, 116497.69, 0.000, 0.000, 0.000, 19:37:32.106
248, 6466.65, 7885.61, -10755.99, -10047.22, -1226.86, -3439.87, 12975.28, 116511.88, 0.000, 0.000, 0.000, 19:37:32.106
249, 6425.97, 7438.57, -10754.81, -10027.71, -1260.33, -3452.14, 12955.47, 116478.69, 0.000, 0.000, 0.000, 19:37:32.106
250, 6480.91, 7158.73, -10695.38, -9965.88, -1187.57, -3456.00, 12938.82, 116442.82, 0.000, 0.000, 0.000, 19:37:32.107
251, 6563.17, 7453.32, -10662.41, -9947.89, -1107.93, -3444.34, 12950.20, 116458.15, 0.000, 0.000, 0.000, 19:37:32.107
252, 6550.51, 7890.68, -10706.24, -10001.22, -1144.05, -3427.77, 12972.42, 116503.13, 0.000, 0.000, 0.000, 19:37:32.107
253, 6467.05, 7875.79, -10765.20, -10052.61, -1241.57, -3469.82, 12973.98, 116516.42, -0.030, 0.990, -0.086, 19:37:32.107
254, 6429.55, 7429.27, -10758.10, -10024.60, -1272.93, -3478.42, 12952.03, 116480.50, 0.000, 0.000, 0.000, 19:37:32.107
255, 6485.11, 7137.67, -10692.94, -9959.02, -1204.18, -3456.38, 12937.77, 116446.30, 0.000, 0.000, 0.000, 19:37:32.107
0, 6567.66, 7424.18, -10652.15, -9938.52, -1118.21, -3447.60, 12951.34, 116463.49, 0.000, 0.000, 0.000, 19:37:32.107
1, 6561.42, 7867.43, -10689.41, -9991.36, -1139.72, -3427.06, 12974.20, 116508.64, 0.000, 0.000, 0.000, 19:37:32.108
2, 6482.21, 7858.83, -10744.17, -10041.21, -1229.37, -3444.65, 12978.18, 116524.04, 0.000, 0.000, 0.000, 19:37:32.108
3, 6438.71, 7415.50, -10740.71, -10021.49, -1257.06, -3453.46, 12956.90, 116488.82, 0.000, 0.000, 0.000, 19:37:32.108
4, 6493.36, 7134.21, -10678.30, -9953.59, -1180.24, -3463.45, 12940.54, 116452.38, 0.000, 0.000, 0.000, 19:37:32.108
5, 6575.77, 7431.62, -10639.12, -9933.58, -1094.01, -3459.74, 12952.32, 116467.56, 0.000, 0.000, 0.000, 19:37:32.109
6, 6568.24, 7882.48, -10677.72, -9990.87, -1116.36, -3428.56, 12973.00, 116510.66, -0.034, 0.988, -0.088, 19:37:32.109
7, 6483.08, 7880.22, -10738.02, -10044.81, -1207.08, -3426.92, 12975.05, 116524.13, 0.000, 0.000, 0.000, 19:37:32.109
8, 6434.64, 7437.79, -10739.66, -10028.31, -1242.82, -3439.13, 12955.16, 116490.43, 0.000, 0.000, 0.000, 19:37:32.109
9, 6484.55, 7153.70, -10684.22, -9969.66, -1173.11, -3462.04, 12940.74, 116455.98, 0.000, 0.000, 0.000, 19:37:32.110
10, 6567.01, 7448.03, -10649.18, -9953.99, -1084.64, -3458.46, 12951.23, 116469.82, 0.000, 0.000, 0.000, 19:37:32.110
11, 6559.75, 7900.16, -10690.46, -10009.56, -1111.37, -3428.06, 12972.71, 116514.12, 0.000, 0.000, 0.000, 19:37:32.110
12, 6472.57, 7898.35, -10759.12, -10066.08, -1223.58, -3434.81, 12974.32, 116527.98, 0.000, 0.000, 0.000, 19:37:32.110
13, 6426.31, 7452.12, -10768.78, -10048.81, -1281.74, -3451.31, 12953.04, 116493.63, 0.000, 0.000, 0.000, 19:37:32.110
14, 6480.51, 7154.82, -10709.59, -9983.76, -1209.56, -3455.24, 12938.40, 116459.36, 0.000, 0.000, 0.000, 19:37:32.110
15, 6568.93, 7439.55, -10665.76, -9956.07, -1123.15, -3447.96, 12948.72, 116473.15, 0.000, 0.000, 0.000, 19:37:32.110
16, 6567.08, 7887.95, -10698.68, -10004.22, -1158.29, -3425.81, 12972.21, 116519.77, -0.036, 0.974, -0.088, 19:37:32.111
17, 6490.52, 7894.50, -10751.23, -10047.35, -1253.15, -3451.76, 12977.27, 116537.56, 0.000, 0.000, 0.000, 19:37:32.111
18, 6452.30, 7461.01, -10743.68, -10019.79, -1283.03, -3458.73, 12956.57, 116504.22, 0.000, 0.000, 0.000, 19:37:32.111
19, 6508.87, 7168.83, -10679.60, -9951.42, -1202.90, -3457.88, 12937.50, 116465.34, 0.000, 0.000, 0.000, 19:37:32.112
20, 6587.17, 7449.90, -10646.11, -9936.07, -1115.62, -3453.99, 12950.00, 116480.91, 0.000, 0.000, 0.000, 19:37:32.112
21, 6574.72, 7893.59, -10693.05, -9996.08, -1149.19, -3432.80, 12973.42, 116526.81, 0.000, 0.000, 0.000, 19:37:32.112
22, 6496.96, 7899.64, -10753.60, -10048.32, -1241.10, -3454.48, 12977.58, 116543.35, 0.000, 0.000, 0.000, 19:37:32.112
23, 6458.07, 7463.47, -10749.09, -10024.15, -1268.93, -3458.46, 12955.61, 116508.35, 0.000, 0.000, 0.000, 19:37:32.112
24, 6508.69, 7162.48, -10688.18, -9961.68, -1197.63, -3458.19, 12939.87, 116472.34, 0.000, 0.000, 0.000, 19:37:32.112
25, 6588.04, 7441.90, -10646.67, -9940.29, -1107.46, -3452.38, 12950.18, 116485.40, 0.000, 0.000, 0.000, 19:37:32.112
26, 6578.65, 7892.53, -10682.57, -9994.31, -1127.24, -3424.56, 12971.68, 116529.67, -0.030, 0.980, -0.090, 19:37:32.112
27, 6495.95, 7899.96, -10743.63, -10046.80, -1218.57, -3431.15, 12975.10, 116545.81, 0.000, 0.000, 0.000, 19:37:32.113
28, 6452.26, 7462.82, -10747.43, -10028.62, -1254.54, -3443.08, 12954.58, 116512.33, 0.000, 0.000, 0.000, 19:37:32.113
29, 6503.91, 7161.36, -10688.22, -9963.60, -1177.56, -3457.52, 12937.90, 116475.36, 0.000, 0.000, 0.000, 19:37:32.113
30, 6583.75, 7438.91, -10649.51, -9943.17, -1083.10, -3458.98, 12951.74, 116491.70, 0.000, 0.000, 0.000, 19:37:32.113
31, 6571.08, 7894.12, -10693.21, -10001.67, -1111.60, -3426.14, 12976.24, 116539.06, 0.000, 0.000, 0.000, 19:37:32.113
32, 6484.20, 7908.18, -10752.35, -10055.31, -1207.06, -3421.47, 12976.44, 116552.48, 0.000, 0.000, 0.000, 19:37:32.113
33, 6436.48, 7472.37, -10748.73, -10036.98, -1236.07, -3432.42, 12955.12, 116518.63, 0.000, 0.000, 0.000, 19:37:32.113
34, 6480.51, 7164.07, -10697.88, -9980.32, -1170.94, -3456.52, 12938.87, 116482.63, 0.000, 0.000, 0.000, 19:37:32.113
35, 6564.91, 7438.08, -10658.25, -9960.27, -1084.10, -3454.37, 12949.37, 116496.17, 0.000, 0.000, 0.000, 19:37:32.113
36, 6559.43, 7893.92, -10698.01, -10014.01, -1116.85, -3422.61, 12972.80, 116542.64, -0.032, 0.982, -0.094, 19:37:32.114
37, 6479.46, 7912.85, -10758.72, -10060.94, -1221.66, -3442.08, 12974.38, 116557.93, 0.000, 0.000, 0.000, 19:37:32.114
38, 6427.42, 7469.48, -10767.15, -10047.29, -1271.19, -3462.82, 12953.15, 116524.91, 0.000, 0.000, 0.000, 19:37:32.114
39, 6480.98, 7152.33, -10707.20, -9978.06, -1208.83, -3454.13, 12937.55, 116489.78, 0.000, 0.000, 0.000, 19:37:32.114
40, 6567.03, 7413.76, -10665.07, -9948.52, -1127.42, -3441.86, 12945.77, 116500.69, 0.000, 0.000, 0.000, 19:37:32.114
41, 6565.06, 7864.95, -10700.92, -9999.48, -1157.51, -3428.18, 12968.37, 116546.02, 0.000, 0.000, 0.000, 19:37:32.114
42, 6488.89, 7891.37, -10752.73, -10046.28, -1233.17, -3459.47, 12972.42, 116563.56, 0.000, 0.000, 0.000, 19:37:32.114
43, 6443.47, 7463.36, -10750.74, -10024.00, -1262.09, -3465.30, 12951.72, 116530.62, 0.000, 0.000, 0.000, 19:37:32.114
44, 6493.27, 7148.53, -10691.11, -9957.12, -1196.20, -3452.96, 12936.14, 116494.78, 0.000, 0.000, 0.000, 19:37:32.114
45, 6572.87, 7405.89, -10651.86, -9937.34, -1110.41, -3448.54, 12946.84, 116507.37, 0.000, 0.000, 0.000, 19:37:32.115
46, 6570.21, 7862.25, -10687.20, -9990.49, -1133.61, -3424.78, 12968.93, 116551.78, -0.040, 0.986, -0.090, 19:37:32.115
47, 6497.34, 7895.82, -10745.18, -10038.93, -1223.87, -3444.54, 12971.45, 116568.01, 0.000, 0.000, 0.000, 19:37:32.115
48, 6451.34, 7467.83, -10748.39, -10021.56, -1262.78, -3458.49, 12949.30, 116534.15, 0.000, 0.000, 0.000, 19:37:32.115
49, 6502.30, 7152.63, -10688.58, -9957.72, -1195.53, -3454.82, 12932.52, 116497.13, 0.000, 0.000, 0.000, 19:37:32.116
50, 6587.39, 7412.51, -10649.64, -9935.37, -1108.38, -3451.60, 12943.65, 116510.32, 0.000, 0.000, 0.000, 19:37:32.116
51, 6585.38, 7873.02, -10687.69, -9988.84, -1131.40, -3425.94, 12966.65, 116555.83, 0.000, 0.000, 0.000, 19:37:32.116
52, 6498.41, 7904.34, -10753.76, -10050.24, -1231.13, -3442.48, 12971.54, 116574.70, 0.000, 0.000, 0.000, 19:37:32.116
53, 6448.25, 7475.83, -10757.16, -10035.84, -1270.52, -3455.51, 12950.96, 116542.13, 0.000, 0.000, 0.000, 19:37:32.116
54, 6496.80, 7157.72, -10694.46, -9969.30, -1199.06, -3455.60, 12932.74, 116503.50, 0.000, 0.000, 0.000, 19:37:32.116
55, 6580.26, 7415.79, -10648.86, -9943.08, -1108.74, -3454.48, 12944.81, 116517.25, -0.038, 0.992, -0.092, 19:37:32.116
56, 6572.62, 7876.51, -10687.91, -9999.39, -1135.58, -3426.95, 12968.73, 116563.92, 0.000, 0.000, 0.000, 19:37:32.116
57, 6489.29, 7914.04, -10748.37, -10054.35, -1229.17, -3435.22, 12973.47, 116582.78, 0.000, 0.000, 0.000, 19:37:32.117
58, 6437.03, 7485.04, -10754.23, -10040.09, -1270.20, -3453.08, 12953.75, 116551.45, 0.000, 0.000, 0.000, 19:37:32.117
59, 6482.61, 7160.14, -10695.47, -9974.49, -1200.45, -3454.42, 12934.93, 116512.33, 0.000, 0.000, 0.000, 19:37:32.117
60, 6565.74, 7410.23, -10647.86, -9943.89, -1106.77, -3449.23, 12943.65, 116522.59, 0.000, 0.000, 0.000, 19:37:32.117
61, 6571.81, 7875.70, -10675.55, -9988.14, -1118.79, -3427.28, 12968.21, 116569.44, 0.000, 0.000, 0.000, 19:37:32.117
62, 6496.27, 7919.47, -10732.48, -10036.83, -1205.68, -3440.85, 12972.24, 116587.32, 0.000, 0.000, 0.000, 19:37:32.117
63, 6442.11, 7490.47, -10738.22, -10022.46, -1248.05, -3454.60, 12952.57, 116555.89, 0.000, 0.000, 0.000, 19:37:32.117
64, 6489.36, 7164.20, -10676.80, -9956.41, -1184.40, -3454.48, 12933.93, 116516.80, 0.000, 0.000, 0.000, 19:37:32.117
65, 6579.68, 7417.02, -10627.63, -9926.36, -1093.83, -3450.24, 12941.59, 116526.03, -0.032, 0.986, -0.090, 19:37:32.118
66, 6584.69, 7884.67, -10659.41, -9974.80, -1110.08, -3424.67, 12966.18, 116573.09, 0.000, 0.000, 0.000, 19:37:32.118
67, 6503.78, 7934.38, -10722.47, -10029.92, -1205.25, -3432.09, 12971.03, 116592.02, 0.000, 0.000, 0.000, 19:37:32.118
68, 6453.13, 7510.97, -10727.21, -10016.20, -1247.81, -3444.34, 12950.64, 116560.16, 0.000, 0.000, 0.000, 19:37:32.118
69, 6500.67, 7181.59, -10665.38, -9949.83, -1182.43, -3452.07, 12930.84, 116519.82, 0.000, 0.000, 0.000, 19:37:32.118
70, 6590.10, 7429.36, -10618.60, -9918.88, -1085.80, -3450.01, 12939.83, 116530.08, 0.000, 0.000, 0.000, 19:37:32.118
71, 6589.56, 7895.37, -10657.29, -9973.64, -1107.98, -3421.07, 12964.15, 116577.17, 0.000, 0.000, 0.000, 19:37:32.118
72, 6506.68, 7941.89, -10725.66, -10035.80, -1208.87, -3429.09, 12967.99, 116595.84, 0.000, 0.000, 0.000, 19:37:32.118
73, 6452.37, 7510.41, -10740.50, -10029.50, -1262.40, -3446.68, 12949.06, 116566.31, 0.000, 0.000, 0.000, 19:37:32.119
74, 6499.08, 7173.43, -10686.61, -9967.83, -1201.90, -3450.57, 12931.06, 116528.24, 0.000, 0.000, 0.000, 19:37:32.119
75, 6583.21, 7413.47, -10644.26, -9940.25, -1112.36, -3449.30, 12940.85, 116539.22, -0.036, 0.986, -0.086, 19:37:32.119
76, 6582.83, 7875.06, -10677.47, -9989.84, -1129.88, -3423.15, 12961.96, 116583.14, 0.000, 0.000, 0.000, 19:37:32.119
77, 6500.31, 7922.91, -10738.07, -10044.87, -1221.30, -3444.67, 12966.07, 116601.98, 0.000, 0.000, 0.000, 19:37:32.126
78, 6443.92, 7500.26, -10744.66, -10033.56, -1268.22, -3462.20, 12948.07, 116572.95, 0.000, 0.000, 0.000, 19:37:32.126
79, 6488.85, 7163.76, -10685.30, -9966.91, -1208.09, -3452.61, 12929.68, 116533.99, 0.000, 0.000, 0.000, 19:37:32.127
80, 6571.75, 7396.97, -10642.51, -9941.07, -1116.22, -3448.32, 12940.74, 116545.66, 0.000, 0.000, 0.000, 19:37:32.127
81, 6567.12, 7855.99, -10679.15, -9996.24, -1132.21, -3420.58, 12962.42, 116589.31, 0.000, 0.000, 0.000, 19:37:32.128
82, 6492.69, 7914.42, -10733.82, -10044.47, -1215.24, -3440.58, 12965.62, 116606.88, 0.000, 0.000, 0.000, 19:37:32.129
83, 6444.37, 7500.37, -10735.56, -10029.79, -1252.28, -3450.44, 12945.84, 116575.99, 0.000, 0.000, 0.000, 19:37:32.129
84, 6481.69, 7160.81, -10680.36, -9972.45, -1192.71, -3450.04, 12928.83, 116537.88, 0.000, 0.000, 0.000, 19:37:32.130
85, 6568.62, 7397.40, -10631.23, -9939.13, -1092.67, -3449.90, 12937.17, 116546.22, -0.042, 0.990, -0.088, 19:37:32.130
86, 6570.85, 7868.08, -10664.33, -9984.28, -1106.12, -3421.45, 12962.40, 116593.38, 0.000, 0.000, 0.000, 19:37:32.130
87, 6491.64, 7931.14, -10725.06, -10037.77, -1204.96, -3429.90, 12967.68, 116613.65, 0.000, 0.000, 0.000, 19:37:32.131
88, 6441.59, 7515.42, -10726.98, -10023.44, -1246.96, -3441.63, 12946.35, 116581.69, 0.000, 0.000, 0.000, 19:37:32.131
89, 6488.91, 7177.39, -10665.11, -9955.96, -1180.75, -3447.64, 12926.37, 116540.83, 0.000, 0.000, 0.000, 19:37:32.131
90, 6578.14, 7411.30, -10618.22, -9925.54, -1083.99, -3447.04, 12935.58, 116550.22, 0.000, 0.000, 0.000, 19:37:32.131
91, 6582.19, 7882.34, -10651.59, -9977.30, -1099.08, -3419.44, 12960.35, 116597.05, 0.000, 0.000, 0.000, 19:37:32.131
92, 6501.32, 7946.78, -10715.60, -10036.20, -1198.88, -3420.69, 12965.44, 116617.12, 0.000, 0.000, 0.000, 19:37:32.131
93, 6448.57, 7529.54, -10726.80, -10023.46, -1253.08, -3437.72, 12947.40, 116588.69, 0.000, 0.000, 0.000, 19:37:32.132
94, 6499.22, 7186.62, -10669.45, -9955.78, -1190.77, -3449.25, 12929.88, 116550.55, 0.000, 0.000, 0.000, 19:37:32.132
95, 6584.51, 7410.63, -10624.72, -9927.35, -1098.43, -3449.59, 12938.37, 116559.16, -0.038, 0.990, -0.088, 19:37:32.132
96, 6583.66, 7873.71, -10664.62, -9982.09, -1122.73, -3419.06, 12960.75, 116603.98, 0.000, 0.000, 0.000, 19:37:32.132
97, 6507.62, 7944.46, -10722.62, -10034.75, -1216.07, -3438.17, 12964.88, 116623.59, 0.000, 0.000, 0.000, 19:37:32.132
98, 6451.18, 7530.28, -10729.87, -10024.11, -1258.94, -3456.54, 12944.86, 116593.49, 0.000, 0.000, 0.000, 19:37:32.132
99, 6488.67, 7173.93, -10676.20, -9966.02, -1201.52, -3445.54, 12926.80, 116554.60, 0.000, 0.000, 0.000, 19:37:32.132
100, 6567.79, 7383.41, -10636.57, -9941.52, -1116.34, -3441.14, 12933.57, 116561.15, 0.000, 0.000, 0.000, 19:37:32.132
101, 6574.90, 7848.23, -10663.99, -9982.13, -1129.55, -3417.63, 12956.52, 116605.91, 0.000, 0.000, 0.000, 19:37:32.133
102, 6498.86, 7921.88, -10721.73, -10038.03, -1213.74, -3442.82, 12964.53, 116629.05, 0.000, 0.000, 0.000, 19:37:32.133
103, 6444.59, 7513.83, -10727.09, -10031.35, -1254.42, -3458.22, 12945.08, 116599.10, 0.000, 0.000, 0.000, 19:37:32.133
104, 6480.46, 7164.27, -10671.82, -9969.95, -1195.73, -3449.34, 12926.95, 116559.78, -0.032, 0.986, -0.094, 19:37:32.133
105, 6564.66, 7386.16, -10623.65, -9943.20, -1098.50, -3445.32, 12934.04, 116566.31, 0.000, 0.000, 0.000, 19:37:32.133
106, 6564.28, 7852.86, -10659.28, -9998.92, -1112.31, -3418.34, 12956.86, 116610.74, 0.000, 0.000, 0.000, 19:37:32.578
107, 6483.53, 7927.16, -10722.87, -10058.28, -1206.03, -3432.65, 12964.37, 116633.43, 0.000, 0.000, 0.000, 19:37:32.579
108, 6433.84, 7524.02, -10727.07, -10043.02, -1248.41, -3441.30, 12944.54, 116603.37, 0.000, 0.000, 0.000, 19:37:32.579
109, 6476.10, 7173.26, -10668.17, -9976.63, -1183.95, -3449.23, 12925.86, 116563.59, 0.000, 0.000, 0.000, 19:37:32.580
110, 6568.42, 7394.87, -10613.08, -9938.08, -1076.19, -3455.83, 12934.71, 116571.92, 0.000, 0.000, 0.000, 19:37:32.580
111, 6586.46, 7880.67, -10636.95, -9976.95, -1076.82, -3419.46, 12957.84, 116616.91, 0.000, 0.000, 0.000, 19:37:32.580
112, 6509.83, 7965.25, -10701.32, -10041.01, -1179.30, -3408.24, 12964.03, 116639.00, 0.000, 0.000, 0.000, 19:37:32.580
113, 6453.71, 7555.87, -10712.83, -10033.90, -1233.50, -3426.61, 12945.59, 116610.97, 0.000, 0.000, 0.000, 19:37:32.581
114, 6493.72, 7197.57, -10662.12, -9971.20, -1179.75, -3443.98, 12925.52, 116570.27, -0.036, 0.984, -0.094, 19:37:32.581
115, 6580.22, 7406.76, -10622.20, -9942.06, -1093.47, -3443.82, 12933.48, 116577.98, 0.000, 0.000, 0.000, 19:37:32.581
116, 6591.77, 7877.22, -10656.24, -9987.63, -1111.35, -3414.16, 12955.36, 116621.97, 0.000, 0.000, 0.000, 19:37:32.581
117, 6512.38, 7958.43, -10724.30, -10047.47, -1217.83, -3444.60, 12962.69, 116645.62, 0.000, 0.000, 0.000, 19:37:32.581
118, 6454.16, 7549.93, -10739.28, -10039.67, -1272.93, -3472.95, 12943.13, 116617.09, 0.000, 0.000, 0.000, 19:37:32.582
119, 6486.97, 7179.49, -10685.45, -9977.68, -1219.58, -3450.35, 12923.53, 116576.95, 0.000, 0.000, 0.000, 19:37:32.582
120, 6573.29, 7370.91, -10632.41, -9937.90, -1120.56, -3438.48, 12930.82, 116583.05, 0.000, 0.000, 0.000, 19:37:32.582
121, 6585.29, 7837.17, -10654.67, -9975.36, -1120.56, -3416.51, 12951.29, 116624.70, 0.000, 0.000, 0.000, 19:37:32.582
122, 6507.22, 7926.08, -10712.23, -10032.31, -1209.07, -3441.59, 12959.45, 116648.41, 0.000, 0.000, 0.000, 19:37:32.582
123, 6452.01, 7527.04, -10715.20, -10021.70, -1246.69, -3451.31, 12941.53, 116620.73, 0.000, 0.000, 0.000, 19:37:32.582
124, 6487.35, 7164.25, -10656.31, -9961.39, -1183.90, -3447.53, 12924.25, 116582.18, -0.036, 0.992, -0.090, 19:37:32.582
125, 6574.34, 7367.96, -10604.58, -9929.94, -1084.35, -3448.96, 12930.75, 116587.30, 0.000, 0.000, 0.000, 19:37:32.582
126, 6586.46, 7843.00, -10636.39, -9977.17, -1091.57, -3418.97, 12953.64, 116631.53, 0.000, 0.000, 0.000, 19:37:32.582
127, 6511.98, 7942.02, -10697.28, -10032.29, -1182.94, -3416.15, 12962.76, 116656.66, 0.000, 0.000, 0.000, 19:37:32.583
128, 6460.93, 7549.88, -10700.94, -10017.81, -1228.36, -3426.68, 12944.32, 116628.83, 0.000, 0.000, 0.000, 19:37:32.583
129, 6500.51, 7190.87, -10644.95, -9955.44, -1170.36, -3444.78, 12923.73, 116587.09, 0.000, 0.000, 0.000, 19:37:32.583
130, 6581.14, 7392.03, -10599.84, -9925.45, -1074.34, -3448.87, 12929.39, 116591.63, 0.000, 0.000, 0.000, 19:37:32.583
131, 6593.25, 7872.64, -10629.08, -9968.54, -1077.18, -3417.27, 12953.71, 116637.75, 0.000, 0.000, 0.000, 19:37:32.583
132, 6518.69, 7973.09, -10692.94, -10026.19, -1172.95, -3408.95, 12961.33, 116661.82, 0.000, 0.000, 0.000, 19:37:32.583
133, 6458.18, 7568.05, -10712.32, -10023.35, -1231.94, -3423.44, 12941.12, 116632.49, 0.000, 0.000, 0.000, 19:37:32.583
134, 6495.44, 7198.45, -10666.30, -9964.56, -1183.55, -3439.06, 12921.39, 116591.75, -0.034, 0.984, -0.088, 19:37:32.583
135, 6581.67, 7391.68, -10626.71, -9937.07, -1094.16, -3441.07, 12928.92, 116598.02, 0.000, 0.000, 0.000, 19:37:32.584
136, 6590.48, 7868.26, -10659.57, -9984.84, -1103.26, -3412.44, 12952.12, 116643.11, 0.000, 0.000, 0.000, 19:37:32.584
137, 6513.72, 7970.39, -10723.12, -10043.29, -1197.16, -3413.36, 12959.76, 116667.41, 0.000, 0.000, 0.000, 19:37:32.584
138, 6456.70, 7570.27, -10740.33, -10038.44, -1252.52, -3429.63, 12942.06, 116640.77, 0.000, 0.000, 0.000, 19:37:32.584
139, 6485.05, 7192.66, -10693.92, -9983.94, -1204.13, -3437.99, 12923.13, 116600.89, 0.000, 0.000, 0.000, 19:37:32.584
140, 6566.67, 7375.43, -10647.68, -9951.53, -1107.80, -3442.53, 12928.94, 116605.16, 0.000, 0.000, 0.000, 19:37:32.584
141, 6580.26, 7848.14, -10676.85, -9996.42, -1116.40, -3418.19, 12953.42, 116651.20, 0.000, 0.000, 0.000, 19:37:32.584
142, 6505.79, 7952.84, -10738.47, -10052.63, -1214.19, -3430.34, 12959.67, 116674.18, 0.000, 0.000, 0.000, 19:37:32.584
143, 6444.75, 7555.25, -10752.40, -10047.51, -1271.57, -3451.96, 12938.51, 116644.54, 0.000, 0.000, 0.000, 19:37:32.585
144, 6478.79, 7179.25, -10698.10, -9981.53, -1214.24, -3441.03, 12920.34, 116605.47, -0.032, 0.980, -0.092, 19:37:32.585
145, 6569.60, 7364.30, -10641.20, -9941.14, -1107.28, -3440.54, 12927.15, 116610.14, 0.000, 0.000, 0.000, 19:37:32.585
146, 6581.16, 7835.87, -10667.97, -9990.60, -1112.54, -3410.03, 12949.97, 116654.35, 0.000, 0.000, 0.000, 19:37:32.585
147, 6511.44, 7947.43, -10724.97, -10043.53, -1198.93, -3412.60, 12956.97, 116678.00, 0.000, 0.000, 0.000, 19:37:32.585
148, 6461.15, 7560.83, -10732.88, -10029.36, -1243.74, -3424.49, 12937.44, 116649.80, 0.000, 0.000, 0.000, 19:37:32.585
149, 6496.24, 7186.64, -10680.60, -9968.88, -1190.03, -3436.16, 12917.34, 116608.63, 0.000, 0.000, 0.000, 19:37:32.585
150, 6585.78, 7371.87, -10628.59, -9931.59, -1090.47, -3441.05, 12922.64, 116611.86, 0.000, 0.000, 0.000, 19:37:32.585
151, 6596.22, 7848.10, -10654.99, -9978.71, -1093.25, -3408.51, 12945.15, 116655.72, 0.000, 0.000, 0.000, 19:37:32.585
152, 6512.90, 7957.29, -10722.62, -10046.17, -1192.40, -3411.30, 12952.68, 116680.15, 0.000, 0.000, 0.000, 19:37:32.586
153, 6446.33, 7561.06, -10746.54, -10051.45, -1258.22, -3430.90, 12936.41, 116655.60, -0.034, 0.986, -0.088, 19:37:32.586
154, 6483.48, 7177.19, -10699.76, -9994.47, -1207.84, -3435.35, 12915.82, 116613.95, 0.000, 0.000, 0.000, 19:37:32.586
155, 6572.69, 7349.19, -10651.83, -9957.66, -1111.28, -3438.84, 12923.31, 116618.48, 0.000, 0.000, 0.000, 19:37:32.586
156, 6585.09, 7820.45, -10686.57, -10006.14, -1122.44, -3411.70, 12946.08, 116662.20, 0.000, 0.000, 0.000, 19:37:32.586
157, 6508.94, 7936.52, -10755.75, -10073.08, -1215.24, -3419.62, 12955.36, 116688.33, 0.000, 0.000, 0.000, 19:37:32.586
158, 6444.81, 7547.04, -10775.53, -10075.12, -1276.71, -3439.04, 12939.83, 116664.34, 0.000, 0.000, 0.000, 19:37:32.587
159, 6477.22, 7162.97, -10722.53, -10011.39, -1226.69, -3435.80, 12918.24, 116621.30, 0.000, 0.000, 0.000, 19:37:32.587
160, 6561.29, 7331.24, -10671.77, -9975.85, -1128.70, -3436.67, 12922.57, 116622.48, 0.000, 0.000, 0.000, 19:37:32.587
161, 6572.11, 7802.79, -10701.46, -10025.56, -1137.28, -3412.46, 12945.26, 116665.95, 0.000, 0.000, 0.000, 19:37:32.587
162, 6491.24, 7920.99, -10769.61, -10091.90, -1233.03, -3436.76, 12955.14, 116692.89, 0.000, 0.000, 0.000, 19:37:32.587
163, 6428.88, 7536.07, -10784.87, -10087.61, -1288.80, -3460.99, 12938.66, 116668.46, -0.038, 0.986, -0.088, 19:37:32.587
164, 6459.79, 7148.38, -10732.23, -10024.91, -1246.87, -3444.02, 12918.15, 116626.50, 0.000, 0.000, 0.000, 19:37:32.587
165, 6546.33, 7308.75, -10679.39, -9987.03, -1154.29, -3439.51, 12923.24, 116628.45, 0.000, 0.000, 0.000, 19:37:32.588
166, 6567.52, 7784.96, -10698.10, -10022.90, -1147.27, -3418.68, 12947.74, 116673.66, 0.000, 0.000, 0.000, 19:37:32.588
167, 6494.95, 7911.31, -10758.86, -10078.83, -1234.64, -3435.44, 12957.17, 116700.33, 0.000, 0.000, 0.000, 19:37:32.588
168, 6437.01, 7527.91, -10772.92, -10071.23, -1294.99, -3456.50, 12940.61, 116675.77, 0.000, 0.000, 0.000, 19:37:32.588
169, 6473.36, 7144.73, -10714.22, -10005.29, -1241.10, -3443.89, 12918.32, 116631.87, 0.000, 0.000, 0.000, 19:37:32.588
170, 6563.61, 7310.32, -10658.90, -9963.49, -1133.88, -3443.24, 12923.80, 116633.86, 0.000, 0.000, 0.000, 19:37:32.588
171, 6584.51, 7792.91, -10677.34, -9998.18, -1121.63, -3418.19, 12947.14, 116677.42, 0.000, 0.000, 0.000, 19:37:32.588
172, 6510.53, 7926.26, -10735.07, -10054.08, -1211.17, -3415.66, 12956.43, 116703.66, 0.000, 0.000, 0.000, 19:37:32.588
173, 6450.13, 7544.92, -10748.75, -10049.37, -1268.48, -3433.36, 12940.41, 116679.48, -0.036, 0.988, -0.094, 19:37:32.589
174, 6486.77, 7163.85, -10693.05, -9985.66, -1209.97, -3445.57, 12919.40, 116636.85, 0.000, 0.000, 0.000, 19:37:32.589
175, 6575.41, 7325.40, -10644.17, -9952.83, -1114.91, -3445.34, 12923.71, 116637.84, 0.000, 0.000, 0.000, 19:37:32.589
176, 6593.50, 7804.07, -10670.92, -9999.48, -1117.12, -3417.34, 12947.67, 116682.45, 0.000, 0.000, 0.000, 19:37:32.589
177, 6519.31, 7940.88, -10734.47, -10060.01, -1209.81, -3412.60, 12954.91, 116707.10, 0.000, 0.000, 0.000, 19:37:32.589
178, 6454.31, 7558.94, -10753.74, -10058.04, -1270.74, -3428.82, 12937.66, 116682.34, 0.000, 0.000, 0.000, 19:37:32.589
179, 6481.69, 7160.52, -10708.30, -10001.22, -1222.66, -3442.17, 12918.62, 116641.75, 0.000, 0.000, 0.000, 19:37:32.589
180, 6568.64, 7312.78, -10655.23, -9965.46, -1121.66, -3444.47, 12922.19, 116641.61, 0.000, 0.000, 0.000, 19:37:32.589
181, 6585.40, 7784.87, -10680.38, -10010.59, -1122.12, -3417.67, 12945.73, 116685.69, 0.000, 0.000, 0.000, 19:37:32.589
182, 6515.00, 7923.07, -10743.61, -10069.04, -1213.61, -3418.48, 12955.56, 116713.27, 0.000, 0.000, 0.000, 19:37:32.589
183, 6450.11, 7544.12, -10764.51, -10069.44, -1277.45, -3438.64, 12938.17, 116688.35, -0.042, 0.990, -0.092, 19:37:32.590
184, 6475.66, 7144.87, -10718.49, -10011.77, -1234.06, -3439.46, 12919.06, 116647.73, 0.000, 0.000, 0.000, 19:37:32.590
185, 6557.02, 7286.38, -10670.25, -9975.74, -1141.26, -3438.70, 12921.95, 116646.76, 0.000, 0.000, 0.000, 19:37:32.590
186, 6572.22, 7757.13, -10695.49, -10014.41, -1145.66, -3418.68, 12946.06, 116691.10, 0.000, 0.000, 0.000, 19:37:32.590
187, 6501.43, 7897.81, -10761.13, -10077.22, -1237.53, -3439.13, 12956.39, 116718.70, 0.000, 0.000, 0.000, 19:37:32.590
188, 6439.85, 7526.75, -10780.18, -10075.99, -1296.85, -3464.79, 12939.71, 116694.52, 0.000, 0.000, 0.000, 19:37:32.590
189, 6475.43, 7132.73, -10721.62, -10008.42, -1244.41, -3449.81, 12920.47, 116652.72, 0.000, 0.000, 0.000, 19:37:32.590
190, 6560.39, 7277.33, -10665.09, -9972.32, -1144.14, -3446.35, 12927.22, 116653.99, 0.000, 0.000, 0.000, 19:37:32.590
191, 6574.21, 7752.01, -10690.08, -10017.09, -1146.89, -3420.49, 12951.58, 116697.16, 0.000, 0.000, 0.000, 19:37:32.591
192, 6502.08, 7900.74, -10750.88, -10074.18, -1233.48, -3432.51, 12962.38, 116724.05, 0.000, 0.000, 0.000, 19:37:32.591
193, 6437.70, 7534.50, -10769.32, -10070.27, -1291.24, -3455.07, 12946.69, 116699.98, -0.040, 0.986, -0.092, 19:37:32.591
194, 6465.78, 7133.07, -10722.56, -10011.28, -1248.81, -3446.42, 12927.09, 116658.13, 0.000, 0.000, 0.000, 19:37:32.591
195, 6556.86, 7270.42, -10665.36, -9969.21, -1147.09, -3448.34, 12933.77, 116659.70, 0.000, 0.000, 0.000, 19:37:32.591
196, 6578.07, 7751.16, -10684.31, -10007.70, -1135.33, -3424.91, 12957.71, 116703.08, 0.000, 0.000, 0.000, 19:37:32.591
197, 6506.97, 7906.24, -10746.52, -10066.53, -1220.61, -3431.19, 12968.79, 116731.40, 0.000, 0.000, 0.000, 19:37:32.593
198, 6442.15, 7541.17, -10764.91, -10064.07, -1281.11, -3450.95, 12952.19, 116707.33, 0.000, 0.000, 0.000, 19:37:32.593
199, 6472.57, 7144.02, -10707.40, -10001.22, -1226.57, -3450.86, 12932.99, 116666.06, 0.000, 0.000, 0.000, 19:37:32.594
200, 6555.39, 7281.17, -10654.72, -9964.99, -1131.74, -3449.75, 12936.50, 116664.57, 0.000, 0.000, 0.000, 19:37:32.594
201, 6576.75, 7758.92, -10678.05, -10003.79, -1129.46, -3423.35, 12959.00, 116706.84, 0.000, 0.000, 0.000, 19:37:32.594
202, 6508.78, 7916.38, -10738.02, -10061.24, -1218.62, -3426.10, 12970.05, 116735.42, -0.034, 0.982, -0.094, 19:37:32.594
203, 6441.79, 7548.88, -10760.46, -10065.88, -1282.32, -3447.78, 12953.17, 116711.22, 0.000, 0.000, 0.000, 19:37:32.594
204, 6470.02, 7141.56, -10712.95, -10004.13, -1237.88, -3447.22, 12933.41, 116669.27, 0.000, 0.000, 0.000, 19:37:32.594
205, 6558.69, 7273.46, -10658.63, -9959.22, -1138.64, -3450.91, 12938.28, 116669.13, 0.000, 0.000, 0.000, 19:37:32.594
206, 6581.05, 7750.47, -10686.19, -10001.60, -1136.14, -3423.08, 12961.15, 116712.09, 0.000, 0.000, 0.000, 19:37:32.594
207, 6514.73, 7911.58, -10747.70, -10063.25, -1223.29, -3420.91, 12969.91, 116738.62, 0.000, 0.000, 0.000, 19:37:32.595
208, 6452.14, 7553.73, -10767.28, -10063.47, -1285.00, -3447.80, 12955.96, 116717.54, 0.000, 0.000, 0.000, 19:37:32.595
209, 6476.84, 7149.45, -10717.95, -10002.27, -1239.16, -3451.02, 12937.77, 116677.42, 0.000, 0.000, 0.000, 19:37:32.595
210, 6560.15, 7275.34, -10664.42, -9961.73, -1141.53, -3454.24, 12942.42, 116676.91, 0.000, 0.000, 0.000, 19:37:32.595
211, 6585.25, 7752.26, -10682.55, -9997.06, -1137.61, -3428.58, 12964.06, 116718.13, 0.000, 0.000, 0.000, 19:37:32.595
212, 6517.17, 7918.64, -10742.00, -10059.67, -1222.62, -3431.75, 12974.83, 116747.02, -0.040, 0.982, -0.086, 19:37:32.595
213, 6442.89, 7555.18, -10768.15, -10069.62, -1288.60, -3458.13, 12959.72, 116725.32, 0.000, 0.000, 0.000, 19:37:32.595
214, 6466.65, 7144.15, -10717.75, -10005.96, -1245.93, -3452.72, 12939.33, 116682.85, 0.000, 0.000, 0.000, 19:37:32.595
215, 6555.57, 7270.93, -10657.80, -9960.32, -1136.74, -3456.59, 12942.40, 116680.26, 0.000, 0.000, 0.000, 19:37:32.595
216, 6576.93, 7749.89, -10677.85, -10003.32, -1121.70, -3430.75, 12966.76, 116723.91, 0.000, 0.000, 0.000, 19:37:32.596
217, 6506.57, 7918.75, -10737.69, -10064.52, -1205.81, -3429.52, 12978.67, 116753.87, 0.000, 0.000, 0.000, 19:37:32.596
218, 6436.21, 7560.16, -10761.18, -10068.57, -1271.30, -3449.37, 12961.75, 116730.44, 0.000, 0.000, 0.000, 19:37:32.596
219, 6461.24, 7148.89, -10712.50, -10004.82, -1234.76, -3448.92, 12939.40, 116686.25, 0.000, 0.000, 0.000, 19:37:32.596
220, 6542.36, 7261.75, -10662.90, -9969.39, -1144.68, -3452.76, 12944.57, 116685.80, 0.000, 0.000, 0.000, 19:37:32.596
221, 6567.68, 7736.34, -10682.95, -10007.68, -1138.20, -3433.00, 12969.62, 116730.10, 0.000, 0.000, 0.000, 19:37:32.596
222, 6502.61, 7912.09, -10747.12, -10069.33, -1226.98, -3444.52, 12981.51, 116760.46, -0.036, 0.982, -0.088, 19:37:32.598
223, 6438.78, 7561.19, -10771.64, -10073.39, -1286.39, -3466.46, 12967.41, 116740.48, 0.000, 0.000, 0.000, 19:37:32.598
224, 6463.81, 7148.51, -10722.15, -10015.50, -1244.28, -3460.32, 12945.97, 116697.54, 0.000, 0.000, 0.000, 19:37:32.598
225, 6553.49, 7261.43, -10661.76, -9972.99, -1142.00, -3459.09, 12948.32, 116694.30, 0.000, 0.000, 0.000, 19:37:32.598
226, 6579.97, 7738.04, -10678.63, -10011.61, -1129.90, -3430.05, 12969.35, 116734.95, 0.000, 0.000, 0.000, 19:37:33.018
227, 6508.74, 7916.00, -10742.40, -10073.01, -1217.25, -3424.44, 12979.08, 116763.20, 0.000, 0.000, 0.000, 19:37:33.018
228, 6443.07, 7568.79, -10764.58, -10071.34, -1282.30, -3450.42, 12963.32, 116741.50, 0.000, 0.000, 0.000, 19:37:33.018
229, 6465.76, 7154.59, -10722.56, -10013.65, -1251.79, -3451.06, 12942.02, 116698.48, 0.000, 0.000, 0.000, 19:37:33.021
230, 6550.58, 7262.71, -10668.96, -9972.92, -1157.06, -3455.07, 12946.15, 116696.76, 0.000, 0.000, 0.000, 19:37:33.021
231, 6578.83, 7739.40, -10678.25, -10004.82, -1137.14, -3432.49, 12969.24, 116738.98, 0.000, 0.000, 0.000, 19:37:33.021
232, 6516.63, 7920.39, -10732.66, -10062.24, -1215.64, -3427.06, 12980.02, 116768.17, -0.046, 0.986, -0.088, 19:37:33.021
233, 6451.14, 7573.78, -10755.59, -10064.59, -1280.06, -3449.68, 12965.64, 116747.59, 0.000, 0.000, 0.000, 19:37:33.021
234, 6469.35, 7156.76, -10711.38, -10009.38, -1244.90, -3455.65, 12946.40, 116706.50, 0.000, 0.000, 0.000, 19:37:33.022
235, 6556.41, 7268.18, -10649.76, -9962.55, -1137.01, -3463.56, 12950.44, 116704.47, 0.000, 0.000, 0.000, 19:37:33.022
236, 6584.40, 7752.55, -10660.37, -9993.00, -1114.61, -3438.93, 12975.05, 116748.59, 0.000, 0.000, 0.000, 19:37:33.022
237, 6512.14, 7935.49, -10723.07, -10056.88, -1200.87, -3425.99, 12984.53, 116777.34, 0.000, 0.000, 0.000, 19:37:33.022
238, 6444.50, 7590.18, -10738.92, -10056.59, -1259.21, -3439.20, 12967.05, 116754.71, 0.000, 0.000, 0.000, 19:37:33.022
239, 6465.06, 7173.52, -10688.65, -9997.20, -1216.65, -3452.16, 12943.96, 116710.59, 0.000, 0.000, 0.000, 19:37:33.022
240, 6555.41, 7282.51, -10626.94, -9947.33, -1109.90, -3462.82, 12948.77, 116709.61, 0.000, 0.000, 0.000, 19:37:33.023
241, 6586.81, 7764.91, -10639.56, -9981.24, -1094.10, -3438.95, 12971.03, 116751.56, 0.000, 0.000, 0.000, 19:37:33.023
242, 6517.43, 7950.92, -10701.81, -10045.12, -1184.04, -3425.11, 12980.91, 116781.00, -0.048, 0.980, -0.090, 19:37:33.023
243, 6448.08, 7605.05, -10725.53, -10046.86, -1250.16, -3439.55, 12967.65, 116762.91, 0.000, 0.000, 0.000, 19:37:33.023
244, 6472.82, 7184.59, -10678.68, -9986.96, -1209.97, -3453.48, 12945.53, 116719.73, 0.000, 0.000, 0.000, 19:37:33.023
245, 6565.29, 7284.32, -10620.12, -9939.40, -1107.89, -3465.44, 12948.28, 116716.58, 0.000, 0.000, 0.000, 19:37:33.024
246, 6598.53, 7767.07, -10634.22, -9970.84, -1092.78, -3436.09, 12969.82, 116757.89, 0.000, 0.000, 0.000, 19:37:33.024
247, 6530.49, 7959.48, -10695.51, -10034.57, -1183.86, -3418.16, 12979.79, 116787.55, 0.000, 0.000, 0.000, 19:37:33.024
248, 6466.31, 7617.32, -10717.86, -10037.01, -1253.89, -3430.08, 12965.33, 116768.34, 0.000, 0.000, 0.000, 19:37:33.025
249, 6488.11, 7193.26, -10676.49, -9979.76, -1212.90, -3448.96, 12944.50, 116726.30, 0.000, 0.000, 0.000, 19:37:33.025
250, 6576.06, 7289.31, -10621.12, -9935.98, -1114.41, -3460.47, 12945.26, 116720.96, 0.000, 0.000, 0.000, 19:37:33.025
251, 6609.25, 7770.34, -10633.55, -9965.10, -1094.81, -3429.38, 12966.22, 116761.51, -0.042, 0.980, -0.092, 19:37:33.025
252, 6544.84, 7967.48, -10694.35, -10022.34, -1180.10, -3414.59, 12977.42, 116792.40, 0.000, 0.000, 0.000, 19:37:33.026
253, 6473.02, 7628.34, -10720.16, -10027.91, -1247.50, -3431.01, 12962.85, 116773.27, 0.000, 0.000, 0.000, 19:37:33.026
254, 6492.13, 7205.60, -10674.86, -9971.18, -1205.56, -3445.99, 12941.95, 116731.11, 0.000, 0.000, 0.000, 19:37:33.026
255, 6584.82, 7303.41, -10613.08, -9924.42, -1096.73, -3453.95, 12942.40, 116724.98, 0.000, 0.000, 0.000, 19:37:33.026
0, 6608.00, 7783.17, -10631.00, -9965.97, -1080.84, -3427.57, 12965.24, 116766.83, 0.000, 0.000, 0.000, 19:37:33.027
1, 6533.68, 7978.19, -10695.69, -10034.17, -1169.76, -3408.84, 12976.24, 116797.41, 0.000, 0.000, 0.000, 19:37:33.028
2, 6462.69, 7640.38, -10715.09, -10033.45, -1231.29, -3422.79, 12961.60, 116778.31, 0.000, 0.000, 0.000, 19:37:33.028
3, 6474.23, 7209.11, -10672.20, -9984.55, -1197.20, -3442.03, 12940.01, 116735.47, 0.000, 0.000, 0.000, 19:37:33.029
4, 6557.15, 7293.78, -10617.32, -9945.59, -1099.57, -3452.96, 12940.52, 116729.43, 0.000, 0.000, 0.000, 19:37:33.029
5, 6593.00, 7776.37, -10626.09, -9972.03, -1074.65, -3423.97, 12961.78, 116769.87, -0.036, 0.984, -0.096, 19:37:33.029
6, 6527.96, 7980.22, -10689.32, -10036.89, -1161.20, -3410.45, 12973.26, 116801.45, 0.000, 0.000, 0.000, 19:37:33.029
7, 6455.61, 7642.58, -10718.76, -10048.90, -1235.36, -3424.80, 12959.12, 116783.26, 0.000, 0.000, 0.000, 19:37:33.029
8, 6474.32, 7208.01, -10675.71, -9991.83, -1205.05, -3437.07, 12936.09, 116739.23, 0.000, 0.000, 0.000, 19:37:33.030
9, 6570.23, 7293.69, -10608.81, -9937.47, -1090.14, -3452.00, 12936.59, 116733.05, 0.000, 0.000, 0.000, 19:37:33.030
10, 6603.13, 7772.48, -10624.03, -9969.19, -1074.56, -3420.53, 12959.85, 116775.61, 0.000, 0.000, 0.000, 19:37:33.030
11, 6536.23, 7973.83, -10692.63, -10033.85, -1172.82, -3403.03, 12971.86, 116808.05, 0.000, 0.000, 0.000, 19:37:33.030
12, 6471.70, 7641.10, -10719.32, -10036.63, -1246.47, -3417.83, 12958.22, 116790.99, 0.000, 0.000, 0.000, 19:37:33.030
13, 6488.91, 7204.68, -10682.43, -9981.48, -1222.95, -3430.75, 12933.64, 116745.64, 0.000, 0.000, 0.000, 19:37:33.030
14, 6580.08, 7277.91, -10625.68, -9934.17, -1122.08, -3441.81, 12934.42, 116739.83, 0.000, 0.000, 0.000, 19:37:33.030
15, 6617.48, 7753.69, -10636.35, -9966.46, -1102.54, -3419.32, 12957.62, 116782.70, -0.034, 0.980, -0.090, 19:37:33.031
16, 6553.62, 7964.31, -10693.83, -10025.14, -1184.96, -3407.55, 12968.73, 116814.66, 0.000, 0.000, 0.000, 19:37:33.031
17, 6485.87, 7636.94, -10711.78, -10025.23, -1251.12, -3425.27, 12953.04, 116795.55, 0.000, 0.000, 0.000, 19:37:33.031
18, 6501.18, 7200.97, -10666.45, -9969.19, -1217.81, -3436.71, 12931.13, 116752.84, 0.000, 0.000, 0.000, 19:37:33.031
19, 6584.51, 7273.15, -10607.29, -9923.75, -1110.30, -3443.04, 12930.24, 116745.19, 0.000, 0.000, 0.000, 19:37:33.031
20, 6615.45, 7752.21, -10616.21, -9953.01, -1086.45, -3413.71, 12950.44, 116784.46, 0.000, 0.000, 0.000, 19:37:33.032
21, 6556.95, 7974.12, -10666.81, -10005.89, -1155.29, -3397.42, 12963.45, 116817.74, 0.000, 0.000, 0.000, 19:37:33.032
22, 6481.80, 7650.17, -10693.05, -10017.13, -1222.66, -3410.18, 12948.72, 116799.15, 0.000, 0.000, 0.000, 19:37:33.032
23, 6495.57, 7216.31, -10648.35, -9962.75, -1181.45, -3432.69, 12926.44, 116755.45, 0.000, 0.000, 0.000, 19:37:33.033
24, 6584.51, 7292.17, -10583.42, -9913.94, -1068.21, -3442.53, 12925.32, 116746.94, 0.000, 0.000, 0.000, 19:37:33.033
25, 6612.09, 7771.92, -10601.32, -9953.59, -1047.67, -3416.49, 12948.63, 116789.27, -0.038, 0.984, -0.098, 19:37:33.033
26, 6542.04, 7988.51, -10668.42, -10024.69, -1130.86, -3397.93, 12960.97, 116822.06, 0.000, 0.000, 0.000, 19:37:33.033
27, 6462.85, 7660.95, -10704.45, -10043.69, -1209.68, -3413.09, 12948.61, 116806.44, 0.000, 0.000, 0.000, 19:37:33.034
28, 6477.13, 7223.95, -10663.32, -9988.30, -1178.97, -3428.44, 12926.15, 116763.12, 0.000, 0.000, 0.000, 19:37:33.034
29, 6570.81, 7289.78, -10604.70, -9936.47, -1074.76, -3440.25, 12926.15, 116755.59, 0.000, 0.000, 0.000, 19:37:33.034
30, 6607.20, 7768.37, -10620.79, -9969.79, -1053.39, -3414.94, 12948.16, 116796.33, 0.000, 0.000, 0.000, 19:37:33.034
31, 6546.33, 7991.78, -10684.38, -10031.15, -1141.17, -3396.88, 12959.18, 116827.98, 0.000, 0.000, 0.000, 19:37:33.036
32, 6481.63, 7674.11, -10708.59, -10032.76, -1211.82, -3405.58, 12943.87, 116809.50, 0.000, 0.000, 0.000, 19:37:33.037
33, 6503.31, 7236.69, -10661.60, -9967.00, -1179.41, -3422.74, 12921.83, 116766.54, 0.000, 0.000, 0.000, 19:37:33.037
34, 6590.17, 7294.18, -10604.81, -9917.49, -1089.40, -3433.50, 12921.97, 116759.12, 0.000, 0.000, 0.000, 19:37:33.416
35, 6626.84, 7767.48, -10616.59, -9946.88, -1072.26, -3406.99, 12943.69, 116799.41, -0.040, 0.976, -0.102, 19:37:33.416
36, 6565.31, 7991.20, -10677.96, -10009.67, -1160.26, -3399.21, 12957.33, 116833.57, 0.000, 0.000, 0.000, 19:37:33.416
37, 6496.60, 7673.44, -10706.78, -10021.85, -1236.07, -3422.88, 12944.83, 116818.23, 0.000, 0.000, 0.000, 19:37:33.416
38, 6506.37, 7222.47, -10671.71, -9972.97, -1217.81, -3425.81, 12921.12, 116773.69, 0.000, 0.000, 0.000, 19:37:33.416
39, 6593.50, 7273.64, -10608.34, -9924.96, -1117.39, -3431.22, 12919.11, 116763.90, 0.000, 0.000, 0.000, 19:37:33.416
40, 6624.50, 7744.37, -10618.06, -9958.35, -1096.84, -3405.20, 12940.23, 116803.75, 0.000, 0.000, 0.000, 19:37:33.416
41, 6555.79, 7968.35, -10678.75, -10027.01, -1180.53, -3404.53, 12953.75, 116838.17, 0.000, 0.000, 0.000, 19:37:33.416
42, 6482.92, 7654.20, -10708.03, -10039.31, -1251.79, -3428.44, 12940.18, 116821.74, 0.000, 0.000, 0.000, 19:37:33.417
43, 6494.54, 7209.02, -10665.16, -9984.75, -1223.02, -3425.09, 12915.98, 116776.33, 0.000, 0.000, 0.000, 19:37:33.417
44, 6578.39, 7256.11, -10606.71, -9935.06, -1113.39, -3433.76, 12916.65, 116768.48, -0.040, 0.980, -0.104, 19:37:33.417
45, 6619.33, 7736.34, -10612.65, -9960.36, -1075.12, -3410.09, 12939.74, 116809.38, 0.000, 0.000, 0.000, 19:37:33.417
46, 6551.41, 7969.18, -10675.66, -10027.19, -1157.40, -3391.94, 12951.29, 116841.41, 0.000, 0.000, 0.000, 19:37:33.417
47, 6470.34, 7656.61, -10709.86, -10039.96, -1231.76, -3408.28, 12938.82, 116825.81, 0.000, 0.000, 0.000, 19:37:33.417
48, 6480.64, 7214.72, -10673.54, -9987.99, -1199.82, -3424.47, 12917.32, 116782.79, 0.000, 0.000, 0.000, 19:37:33.417
49, 6570.27, 7266.17, -10617.28, -9938.75, -1093.83, -3439.29, 12918.28, 116775.14, 0.000, 0.000, 0.000, 19:37:33.418
50, 6611.29, 7741.73, -10627.11, -9968.30, -1063.97, -3412.04, 12940.45, 116815.33, 0.000, 0.000, 0.000, 19:37:33.418
51, 6549.80, 7979.08, -10696.85, -10036.98, -1148.97, -3393.58, 12954.04, 116849.53, 0.000, 0.000, 0.000, 19:37:33.418
52, 6476.10, 7670.81, -10732.75, -10050.17, -1224.25, -3404.33, 12940.90, 116833.59, 0.000, 0.000, 0.000, 19:37:33.418
53, 6489.14, 7225.78, -10697.72, -9996.55, -1196.11, -3421.87, 12917.43, 116788.71, 0.000, 0.000, 0.000, 19:37:33.418
54, 6575.77, 7268.52, -10643.79, -9950.44, -1100.78, -3432.51, 12914.48, 116777.18, -0.042, 0.980, -0.104, 19:37:33.418
55, 6611.27, 7738.02, -10662.14, -9984.14, -1084.77, -3404.48, 12937.32, 116817.92, 0.000, 0.000, 0.000, 19:37:33.418
56, 6549.19, 7970.50, -10733.37, -10050.28, -1180.60, -3397.33, 12952.14, 116853.64, 0.000, 0.000, 0.000, 19:37:33.418
57, 6486.23, 7671.74, -10763.84, -10056.29, -1256.37, -3421.29, 12936.25, 116835.27, 0.000, 0.000, 0.000, 19:37:33.419
58, 6501.27, 7224.40, -10722.76, -9997.80, -1231.25, -3419.06, 12913.59, 116791.28, 0.000, 0.000, 0.000, 19:37:33.419
59, 6588.58, 7257.05, -10661.58, -9947.20, -1132.12, -3425.09, 12913.67, 116782.30, 0.000, 0.000, 0.000, 19:37:33.419
60, 6625.08, 7722.21, -10672.76, -9978.96, -1112.56, -3400.30, 12935.92, 116822.20, 0.000, 0.000, 0.000, 19:37:33.419
61, 6562.11, 7962.67, -10730.22, -10041.74, -1191.46, -3402.70, 12950.80, 116857.77, 0.000, 0.000, 0.000, 19:37:33.419
62, 6481.76, 7662.24, -10763.91, -10061.62, -1265.67, -3442.12, 12936.81, 116841.57, 0.000, 0.000, 0.000, 19:37:33.419
63, 6481.09, 7205.08, -10727.34, -10011.32, -1245.24, -3430.79, 12915.40, 116798.92, 0.000, 0.000, 0.000, 19:37:33.419
64, 6568.08, 7231.48, -10658.47, -9956.05, -1138.04, -3426.46, 12915.42, 116789.56, -0.034, 0.980, -0.102, 19:37:33.420
65, 6610.55, 7702.37, -10656.51, -9980.14, -1100.49, -3405.82, 12936.41, 116827.76, 0.000, 0.000, 0.000, 19:37:33.420
66, 6550.74, 7951.86, -10712.65, -10042.57, -1179.08, -3402.49, 12949.28, 116861.04, 0.000, 0.000, 0.000, 19:37:33.420
67, 6477.11, 7661.22, -10739.45, -10051.89, -1246.20, -3426.10, 12937.79, 116847.12, 0.000, 0.000, 0.000, 19:37:33.420
68, 6483.28, 7213.42, -10701.46, -10001.40, -1221.43, -3426.30, 12915.44, 116803.30, 0.000, 0.000, 0.000, 19:37:33.420
69, 6578.52, 7251.04, -10631.34, -9942.37, -1103.37, -3436.74, 12914.50, 116792.73, 0.000, 0.000, 0.000, 19:37:33.420
70, 6618.89, 7729.10, -10634.98, -9967.09, -1071.03, -3410.56, 12936.67, 116831.76, 0.000, 0.000, 0.000, 19:37:33.420
71, 6555.97, 7984.24, -10696.18, -10034.41, -1149.95, -3388.17, 12951.56, 116867.32, 0.000, 0.000, 0.000, 19:37:33.420
72, 6482.88, 7693.65, -10726.98, -10049.37, -1220.00, -3396.77, 12938.51, 116851.97, 0.000, 0.000, 0.000, 19:37:33.421
73, 6493.36, 7244.45, -10690.57, -9999.52, -1194.07, -3418.63, 12915.13, 116807.22, 0.000, 0.000, 0.000, 19:37:33.421
74, 6576.87, 7269.57, -10638.33, -9953.21, -1094.65, -3433.54, 12913.07, 116795.59, -0.038, 0.980, -0.102, 19:37:33.421
75, 6613.59, 7736.88, -10651.88, -9986.04, -1072.64, -3406.16, 12934.26, 116834.09, 0.000, 0.000, 0.000, 19:37:33.421
76, 6550.51, 7987.26, -10722.51, -10061.01, -1165.13, -3393.84, 12947.85, 116868.91, 0.000, 0.000, 0.000, 19:37:33.421
77, 6474.65, 7693.18, -10766.59, -10083.70, -1250.09, -3416.87, 12935.04, 116854.49, 0.000, 0.000, 0.000, 19:37:33.421
78, 6487.71, 7238.77, -10731.23, -10025.05, -1232.48, -3417.38, 12913.36, 116811.76, 0.000, 0.000, 0.000, 19:37:33.421
79, 6574.68, 7252.60, -10673.49, -9973.95, -1140.59, -3424.89, 12912.11, 116800.89, 0.000, 0.000, 0.000, 19:37:33.421
80, 6620.43, 7719.09, -10679.15, -9999.59, -1116.38, -3401.29, 12933.37, 116839.11, 0.000, 0.000, 0.000, 19:37:33.421
81, 6561.38, 7975.17, -10742.81, -10064.34, -1205.34, -3398.49, 12947.92, 116875.39, 0.000, 0.000, 0.000, 19:37:33.422
82, 6488.33, 7689.85, -10775.93, -10077.62, -1279.35, -3435.28, 12936.52, 116863.07, 0.000, 0.000, 0.000, 19:37:33.422
83, 6494.61, 7233.87, -10739.95, -10025.83, -1258.56, -3424.98, 12912.51, 116818.41, 0.000, 0.000, 0.000, 19:37:33.422
84, 6575.08, 7239.64, -10676.62, -9973.84, -1157.04, -3422.28, 12910.32, 116806.37, -0.038, 0.988, -0.106, 19:37:33.422
85, 6609.19, 7698.25, -10682.12, -10001.33, -1125.50, -3399.72, 12931.78, 116844.50, 0.000, 0.000, 0.000, 19:37:33.422
86, 6542.78, 7953.11, -10743.86, -10068.88, -1203.78, -3410.85, 12948.21, 116881.94, 0.000, 0.000, 0.000, 19:37:33.422
87, 6465.22, 7673.26, -10771.19, -10082.96, -1270.63, -3448.23, 12936.47, 116868.62, 0.000, 0.000, 0.000, 19:37:33.422
88, 6468.39, 7215.50, -10736.24, -10035.96, -1248.81, -3432.65, 12913.72, 116824.43, 0.000, 0.000, 0.000, 19:37:33.422
89, 6556.50, 7219.19, -10671.97, -9980.39, -1145.50, -3428.40, 12910.86, 116811.17, 0.000, 0.000, 0.000, 19:37:33.423
90, 6607.47, 7686.09, -10667.37, -9995.16, -1102.28, -3409.22, 12933.28, 116850.31, 0.000, 0.000, 0.000, 19:37:33.423
91, 6556.06, 7957.58, -10722.67, -10052.70, -1172.48, -3403.75, 12948.48, 116886.79, 0.000, 0.000, 0.000, 19:37:33.503
92, 6475.88, 7679.81, -10757.89, -10067.96, -1253.73, -3429.11, 12936.36, 116873.29, 0.000, 0.000, 0.000, 19:37:33.504
93, 6480.87, 7227.35, -10719.70, -10012.40, -1226.91, -3428.20, 12913.76, 116829.57, -0.032, 0.986, -0.104, 19:37:33.504
94, 6566.56, 7235.82, -10654.16, -9957.08, -1117.99, -3432.20, 12910.50, 116815.89, 0.000, 0.000, 0.000, 19:37:33.504
95, 6611.38, 7703.95, -10655.97, -9975.94, -1082.87, -3410.25, 12933.57, 116855.38, 0.000, 0.000, 0.000, 19:37:33.505
96, 6553.38, 7975.75, -10716.92, -10040.72, -1154.00, -3393.69, 12947.81, 116890.92, 0.000, 0.000, 0.000, 19:37:33.505
97, 6479.61, 7700.94, -10752.46, -10056.18, -1229.88, -3410.52, 12935.85, 116877.73, 0.000, 0.000, 0.000, 19:37:33.505
98, 6479.64, 7240.76, -10722.82, -10010.05, -1216.45, -3419.06, 12912.36, 116833.10, 0.000, 0.000, 0.000, 19:37:33.505
99, 6563.43, 7240.69, -10664.67, -9958.60, -1124.47, -3429.03, 12909.14, 116819.24, 0.000, 0.000, 0.000, 19:37:33.505
100, 6610.28, 7703.04, -10667.86, -9980.68, -1097.07, -3402.47, 12928.67, 116854.96, 0.000, 0.000, 0.000, 19:37:33.506
101, 6555.86, 7974.90, -10729.91, -10049.59, -1178.52, -3399.05, 12946.22, 116893.63, 0.000, 0.000, 0.000, 19:37:33.506
102, 6477.85, 7700.42, -10771.04, -10076.81, -1261.02, -3438.48, 12935.31, 116881.72, 0.000, 0.000, 0.000, 19:37:33.506
103, 6485.85, 7240.36, -10732.48, -10024.27, -1241.57, -3430.05, 12913.29, 116838.47, -0.034, 0.988, -0.106, 19:37:33.507
104, 6567.14, 7233.94, -10666.12, -9971.83, -1143.09, -3430.30, 12912.36, 116826.71, 0.000, 0.000, 0.000, 19:37:33.507
105, 6611.74, 7699.01, -10662.52, -9989.17, -1101.63, -3409.11, 12933.57, 116863.99, 0.000, 0.000, 0.000, 19:37:33.507
106, 6555.07, 7977.23, -10721.42, -10053.72, -1175.88, -3405.94, 12948.81, 116900.70, 0.000, 0.000, 0.000, 19:37:33.507
107, 6478.68, 7709.41, -10757.20, -10072.97, -1255.12, -3427.24, 12936.45, 116887.51, 0.000, 0.000, 0.000, 19:37:33.507
108, 6476.86, 7247.96, -10721.01, -10027.37, -1237.21, -3422.77, 12914.99, 116845.06, 0.000, 0.000, 0.000, 19:37:33.507
109, 6559.97, 7237.63, -10655.68, -9970.51, -1135.29, -3431.86, 12913.50, 116832.54, 0.000, 0.000, 0.000, 19:37:33.508
110, 6604.29, 7696.00, -10658.14, -9991.92, -1099.97, -3410.12, 12935.24, 116870.25, 0.000, 0.000, 0.000, 19:37:33.508
111, 6546.04, 7972.26, -10718.98, -10056.79, -1175.50, -3404.53, 12949.71, 116906.17, 0.000, 0.000, 0.000, 19:37:33.508
112, 6470.20, 7711.51, -10752.89, -10070.40, -1252.52, -3428.18, 12939.76, 116895.62, 0.000, 0.000, 0.000, 19:37:33.508
113, 6474.61, 7254.12, -10713.79, -10015.17, -1232.70, -3426.43, 12918.68, 116853.59, -0.038, 0.988, -0.108, 19:37:33.508
114, 6561.62, 7243.55, -10641.62, -9954.21, -1123.42, -3434.08, 12914.10, 116838.02, 0.000, 0.000, 0.000, 19:37:33.508
115, 6609.34, 7702.10, -10642.51, -9973.71, -1090.14, -3410.41, 12935.49, 116875.50, 0.000, 0.000, 0.000, 19:37:33.508
116, 6562.72, 7987.73, -10700.07, -10031.62, -1167.41, -3399.03, 12952.46, 116913.97, 0.000, 0.000, 0.000, 19:37:33.508
117, 6486.43, 7727.65, -10736.53, -10051.38, -1246.80, -3425.99, 12941.28, 116902.15, 0.000, 0.000, 0.000, 19:37:33.508
118, 6484.08, 7262.91, -10704.90, -10001.56, -1234.26, -3429.92, 12919.62, 116859.56, 0.000, 0.000, 0.000, 19:37:33.508
119, 6572.44, 7250.57, -10636.41, -9941.32, -1124.76, -3441.41, 12918.82, 116847.16, 0.000, 0.000, 0.000, 19:37:33.509
120, 6615.36, 7710.86, -10639.63, -9968.54, -1088.46, -3414.03, 12938.37, 116882.59, 0.000, 0.000, 0.000, 19:37:33.509
121, 6568.55, 8002.06, -10695.76, -10025.92, -1156.10, -3395.54, 12952.01, 116917.92, 0.000, 0.000, 0.000, 19:37:33.509
122, 6495.04, 7745.28, -10733.06, -10045.41, -1235.14, -3419.12, 12942.06, 116907.98, 0.000, 0.000, 0.000, 19:37:33.509
123, 6498.88, 7283.81, -10696.74, -9992.17, -1215.51, -3427.24, 12920.29, 116865.60, -0.040, 0.982, -0.108, 19:37:33.509
124, 6577.96, 7260.27, -10636.41, -9940.98, -1120.22, -3432.65, 12913.50, 116847.41, 0.000, 0.000, 0.000, 19:37:33.509
125, 6624.59, 7717.88, -10639.88, -9963.20, -1080.13, -3411.17, 12933.32, 116882.99, 0.000, 0.000, 0.000, 19:37:33.509
126, 6569.94, 8007.09, -10703.78, -10032.54, -1159.92, -3397.82, 12949.73, 116921.37, 0.000, 0.000, 0.000, 19:37:33.510
127, 6494.12, 7751.65, -10739.88, -10050.95, -1241.55, -3419.68, 12940.18, 116911.89, 0.000, 0.000, 0.000, 19:37:33.510
128, 6491.46, 7287.38, -10702.08, -9999.97, -1222.46, -3423.82, 12916.85, 116867.84, 0.000, 0.000, 0.000, 19:37:33.510
129, 6576.37, 7264.38, -10631.76, -9939.73, -1112.74, -3435.57, 12911.89, 116851.20, 0.000, 0.000, 0.000, 19:37:33.510
130, 6616.74, 7714.82, -10635.72, -9968.23, -1078.94, -3409.62, 12932.92, 116887.95, 0.000, 0.000, 0.000, 19:37:33.510
131, 6555.74, 8001.54, -10699.02, -10037.70, -1158.36, -3393.44, 12949.21, 116926.64, 0.000, 0.000, 0.000, 19:37:33.510
132, 6476.82, 7745.53, -10738.65, -10059.67, -1238.31, -3421.63, 12939.04, 116917.34, -0.036, 0.984, -0.106, 19:37:33.510
133, 6475.99, 7277.53, -10711.49, -10015.48, -1230.11, -3420.69, 12915.22, 116873.05, 0.000, 0.000, 0.000, 19:37:33.511
134, 6554.05, 7236.29, -10655.23, -9963.27, -1138.96, -3427.17, 12912.20, 116858.45, 0.000, 0.000, 0.000, 19:37:33.511
135, 6601.12, 7680.64, -10656.55, -9980.01, -1100.31, -3410.09, 12933.79, 116895.46, 0.000, 0.000, 0.000, 19:37:33.511
136, 6545.22, 7969.27, -10722.56, -10050.95, -1179.32, -3417.16, 12949.48, 116933.02, 0.000, 0.000, 0.000, 19:37:33.511
137, 6463.52, 7721.77, -10761.36, -10072.57, -1257.76, -3458.08, 12939.33, 116923.49, 0.000, 0.000, 0.000, 19:37:33.511
138, 6455.21, 7252.58, -10730.76, -10027.57, -1248.21, -3446.84, 12915.55, 116879.10, 0.000, 0.000, 0.000, 19:37:33.511
139, 6538.06, 7210.18, -10663.06, -9970.08, -1148.14, -3429.67, 12910.93, 116862.13, 0.000, 0.000, 0.000, 19:37:33.512
140, 6591.15, 7656.90, -10661.02, -9987.41, -1105.90, -3410.07, 12933.08, 116899.26, 0.000, 0.000, 0.000, 19:37:33.512
141, 6543.67, 7956.93, -10714.04, -10046.06, -1175.97, -3406.72, 12951.34, 116939.27, 0.000, 0.000, 0.000, 19:37:33.512
142, 6473.20, 7721.37, -10740.59, -10058.60, -1242.51, -3431.95, 12938.11, 116926.35, -0.028, 0.980, -0.104, 19:37:33.512
143, 6472.35, 7260.23, -10703.22, -10009.02, -1220.34, -3427.28, 12915.33, 116882.72, 0.000, 0.000, 0.000, 19:37:33.512
144, 6551.59, 7219.88, -10640.41, -9958.35, -1124.67, -3438.10, 12911.80, 116866.90, 0.000, 0.000, 0.000, 19:37:33.513
145, 6609.66, 7678.83, -10630.29, -9968.72, -1074.14, -3418.39, 12932.07, 116901.85, 0.000, 0.000, 0.000, 19:37:33.513
146, 6560.33, 7986.66, -10687.29, -10031.62, -1135.56, -3392.53, 12950.04, 116941.38, 0.000, 0.000, 0.000, 19:37:33.513
147, 6476.33, 7742.20, -10730.78, -10061.10, -1216.85, -3407.23, 12941.75, 116933.68, 0.000, 0.000, 0.000, 19:37:33.513
148, 6472.51, 7275.58, -10697.81, -10011.37, -1198.25, -3428.02, 12919.02, 116890.34, 0.000, 0.000, 0.000, 19:37:33.514
149, 6564.60, 7243.82, -10620.41, -9943.60, -1083.30, -3439.64, 12913.94, 116873.20, 0.000, 0.000, 0.000, 19:37:33.514
150, 6617.93, 7702.77, -10615.42, -9960.94, -1041.64, -3417.63, 12932.56, 116907.38, 0.000, 0.000, 0.000, 19:37:33.514
151, 6567.59, 8013.84, -10673.58, -10024.67, -1117.41, -3387.25, 12948.79, 116946.42, 0.000, 0.000, 0.000, 19:37:33.514
152, 6492.67, 7776.46, -10713.10, -10043.31, -1205.92, -3393.87, 12938.33, 116937.53, -0.032, 0.982, -0.106, 19:37:33.515
153, 6487.79, 7304.42, -10688.72, -9998.14, -1207.06, -3412.95, 12914.01, 116893.47, 0.000, 0.000, 0.000, 19:37:33.515
154, 6570.88, 7249.43, -10628.14, -9940.47, -1121.34, -3430.23, 12910.50, 116877.76, 0.000, 0.000, 0.000, 19:37:33.515
155, 6626.35, 7691.30, -10625.17, -9953.25, -1088.73, -3408.53, 12930.24, 116912.43, 0.000, 0.000, 0.000, 19:37:33.515
156, 6574.94, 7995.64, -10684.89, -10018.63, -1165.73, -3403.37, 12947.16, 116952.05, 0.000, 0.000, 0.000, 19:37:33.515
157, 6489.29, 7759.99, -10727.43, -10046.97, -1247.43, -3440.65, 12940.23, 116946.70, 0.000, 0.000, 0.000, 19:37:33.515
158, 6478.76, 7287.03, -10695.20, -10001.80, -1233.32, -3431.93, 12915.80, 116902.10, 0.000, 0.000, 0.000, 19:37:33.516
159, 6557.80, 7229.56, -10626.73, -9945.97, -1126.44, -3434.26, 12910.81, 116884.29, 0.000, 0.000, 0.000, 19:37:33.516
160, 6609.54, 7676.17, -10621.71, -9964.03, -1077.00, -3415.21, 12931.78, 116919.65, 0.000, 0.000, 0.000, 19:37:33.516
161, 6561.33, 7988.69, -10677.43, -10025.07, -1137.95, -3395.01, 12946.87, 116956.98, 0.000, 0.000, 0.000, 19:37:33.516
162, 6478.83, 7755.03, -10719.83, -10056.74, -1218.82, -3419.73, 12937.37, 116948.97, -0.028, 0.990, -0.104, 19:37:33.516
163, 6473.27, 7284.72, -10691.89, -10013.11, -1209.92, -3429.36, 12916.60, 116908.29, 0.000, 0.000, 0.000, 19:37:33.516
164, 6560.19, 7234.88, -10619.00, -9947.51, -1097.85, -3440.43, 12912.36, 116891.22, 0.000, 0.000, 0.000, 19:37:33.516
165, 6609.90, 7683.81, -10614.15, -9966.51, -1046.93, -3415.39, 12930.33, 116923.85, 0.000, 0.000, 0.000, 19:37:33.517
166, 6557.71, 8001.43, -10672.89, -10034.12, -1116.67, -3389.28, 12949.50, 116965.53, 0.000, 0.000, 0.000, 19:37:33.517
167, 6480.13, 7774.58, -10709.53, -10056.79, -1197.29, -3395.52, 12939.67, 116957.45, 0.000, 0.000, 0.000, 19:37:33.517
168, 6484.75, 7314.21, -10673.11, -10004.33, -1176.01, -3419.01, 12915.24, 116912.96, 0.000, 0.000, 0.000, 19:37:33.517
169, 6571.48, 7267.98, -10603.15, -9942.32, -1064.99, -3437.41, 12910.10, 116895.13, 0.000, 0.000, 0.000, 19:37:33.517
170, 6624.68, 7718.82, -10599.60, -9957.52, -1018.39, -3415.35, 12930.73, 116930.38, 0.000, 0.000, 0.000, 19:37:33.517
171, 6573.31, 8037.89, -10662.74, -10028.13, -1096.73, -3384.84, 12946.62, 116969.31, 0.000, 0.000, 0.000, 19:37:33.518
172, 6494.50, 7811.08, -10703.09, -10051.62, -1190.90, -3385.37, 12935.87, 116961.02, -0.030, 0.994, -0.100, 19:37:33.518
173, 6489.31, 7342.66, -10673.63, -10003.66, -1178.07, -3415.57, 12913.59, 116919.49, 0.000, 0.000, 0.000, 19:37:33.518
174, 6569.92, 7281.53, -10609.93, -9944.31, -1079.50, -3435.22, 12907.55, 116901.38, 0.000, 0.000, 0.000, 19:37:33.518
175, 6622.06, 7720.05, -10604.27, -9960.58, -1041.28, -3407.46, 12925.10, 116933.84, 0.000, 0.000, 0.000, 19:37:33.518
176, 6567.93, 8031.34, -10665.40, -10027.64, -1124.09, -3380.77, 12939.71, 116971.75, 0.000, 0.000, 0.000, 19:37:33.518
177, 6492.82, 7807.42, -10698.82, -10043.42, -1206.66, -3403.23, 12933.01, 116968.17, 0.000, 0.000, 0.000, 19:37:33.518
178, 6482.74, 7328.04, -10671.08, -9997.33, -1204.33, -3413.02, 12910.28, 116926.17, 0.000, 0.000, 0.000, 19:37:33.518
179, 6551.39, 7240.71, -10616.90, -9946.91, -1118.68, -3419.01, 12903.46, 116906.48, 0.000, 0.000, 0.000, 19:37:33.518
180, 6603.64, 7665.73, -10615.38, -9960.85, -1075.57, -3401.44, 12923.29, 116940.16, 0.000, 0.000, 0.000, 19:37:33.519
181, 6565.44, 7988.04, -10666.50, -10014.94, -1134.28, -3394.74, 12940.74, 116980.24, -0.030, 0.982, -0.102, 19:37:33.519
182, 6487.50, 7776.57, -10708.03, -10040.22, -1211.11, -3429.85, 12932.81, 116974.79, 0.000, 0.000, 0.000, 19:37:33.519
183, 6471.46, 7300.01, -10689.12, -10004.04, -1209.94, -3428.96, 12910.84, 116933.08, 0.000, 0.000, 0.000, 19:37:33.519
184, 6549.82, 7221.02, -10623.16, -9943.31, -1110.43, -3430.57, 12905.38, 116913.86, 0.000, 0.000, 0.000, 19:37:33.519
185, 6614.93, 7662.92, -10605.48, -9946.17, -1047.38, -3412.44, 12924.47, 116946.47, 0.000, 0.000, 0.000, 19:37:33.519
186, 6568.60, 7988.58, -10661.78, -10013.98, -1115.06, -3389.06, 12941.57, 116986.41, 0.000, 0.000, 0.000, 19:37:33.519
187, 6486.48, 7776.42, -10705.95, -10046.30, -1198.55, -3406.92, 12932.79, 116980.45, 0.000, 0.000, 0.000, 19:37:33.519
188, 6477.94, 7307.81, -10679.89, -10004.31, -1192.29, -3415.39, 12908.60, 116936.37, 0.000, 0.000, 0.000, 19:37:33.519
189, 6565.06, 7236.31, -10610.42, -9941.09, -1085.94, -3431.24, 12900.42, 116914.39, 0.000, 0.000, 0.000, 19:37:33.519
190, 6621.08, 7676.80, -10605.52, -9959.47, -1032.00, -3412.24, 12921.01, 116948.75, 0.000, 0.000, 0.000, 19:37:33.520
191, 6571.70, 8009.59, -10665.09, -10028.56, -1100.85, -3383.09, 12937.88, 116988.73, -0.022, 0.980, -0.100, 19:37:33.520
192, 6490.07, 7799.82, -10707.63, -10054.51, -1189.81, -3393.15, 12931.09, 116984.82, 0.000, 0.000, 0.000, 19:37:33.520
193, 6481.85, 7329.94, -10675.93, -10004.89, -1186.99, -3407.50, 12906.70, 116941.04, 0.000, 0.000, 0.000, 19:37:33.520
194, 6566.34, 7249.74, -10606.62, -9939.42, -1088.66, -3423.35, 12898.97, 116920.16, 0.000, 0.000, 0.000, 19:37:33.520
195, 6630.64, 7687.95, -10592.54, -9943.31, -1034.80, -3406.83, 12918.32, 116953.40, 0.000, 0.000, 0.000, 19:37:33.520
196, 6585.18, 8020.10, -10650.70, -10006.90, -1108.49, -3384.43, 12937.10, 116995.58, 0.000, 0.000, 0.000, 19:37:33.520
197, 6503.37, 7807.49, -10699.71, -10040.07, -1207.13, -3403.90, 12929.37, 116991.20, 0.000, 0.000, 0.000, 19:37:33.520
198, 6488.67, 7326.99, -10678.70, -10002.61, -1212.49, -3408.95, 12904.26, 116946.76, 0.000, 0.000, 0.000, 19:37:33.520
199, 6559.99, 7228.55, -10617.46, -9950.35, -1118.91, -3413.38, 12896.38, 116924.85, 0.000, 0.000, 0.000, 19:37:33.520
200, 6611.67, 7648.97, -10611.29, -9965.37, -1072.32, -3400.19, 12916.71, 116958.16, 0.000, 0.000, 0.000, 19:37:33.520
201, 6565.13, 7981.36, -10669.81, -10034.06, -1138.62, -3397.69, 12935.13, 116999.22, -0.026, 0.980, -0.098, 19:37:33.521
202, 6483.70, 7780.11, -10715.85, -10064.63, -1218.91, -3433.81, 12929.03, 116996.16, 0.000, 0.000, 0.000, 19:37:33.521
203, 6470.96, 7304.80, -10691.38, -10020.67, -1215.15, -3427.60, 12906.14, 116953.78, 0.000, 0.000, 0.000, 19:37:33.521
204, 6545.89, 7202.22, -10626.11, -9955.56, -1119.51, -3421.36, 12898.14, 116931.20, 0.000, 0.000, 0.000, 19:37:33.521
205, 6601.65, 7623.38, -10616.34, -9966.71, -1069.29, -3402.52, 12917.21, 116962.74, 0.000, 0.000, 0.000, 19:37:33.521
206, 6561.35, 7961.15, -10668.58, -10025.07, -1130.82, -3395.72, 12938.08, 117005.99, 0.000, 0.000, 0.000, 19:37:33.521
207, 6485.43, 7768.62, -10703.31, -10050.44, -1213.34, -3427.82, 12931.29, 117002.21, 0.000, 0.000, 0.000, 19:37:33.521
208, 6474.38, 7296.01, -10673.45, -10006.94, -1206.93, -3422.99, 12906.95, 116958.18, 0.000, 0.000, 0.000, 19:37:33.521
209, 6563.77, 7201.42, -10601.75, -9938.64, -1098.95, -3425.16, 12897.87, 116934.55, 0.000, 0.000, 0.000, 19:37:33.521
210, 6625.82, 7632.58, -10594.08, -9951.11, -1045.55, -3411.26, 12918.70, 116967.93, 0.000, 0.000, 0.000, 19:37:33.521
211, 6581.36, 7977.36, -10654.32, -10020.09, -1115.04, -3385.08, 12936.99, 117008.80, -0.030, 0.980, -0.100, 19:37:33.980
212, 6503.49, 7787.93, -10693.95, -10044.07, -1202.08, -3398.56, 12930.53, 117005.77, 0.000, 0.000, 0.000, 19:37:33.980
213, 6492.82, 7311.61, -10672.31, -10002.32, -1206.70, -3408.84, 12905.83, 116961.73, 0.000, 0.000, 0.000, 19:37:33.980
214, 6569.85, 7208.12, -10612.41, -9947.00, -1113.05, -3428.36, 12899.10, 116940.41, 0.000, 0.000, 0.000, 19:37:33.980
215, 6636.48, 7645.62, -10596.36, -9950.28, -1051.98, -3411.93, 12918.82, 116972.69, 0.000, 0.000, 0.000, 19:37:33.980
216, 6590.79, 7997.72, -10657.00, -10016.53, -1119.40, -3385.60, 12937.41, 117014.22, 0.000, 0.000, 0.000, 19:37:33.981
217, 6511.11, 7806.66, -10700.76, -10039.69, -1208.07, -3395.48, 12928.94, 117009.50, 0.000, 0.000, 0.000, 19:37:33.981
218, 6496.40, 7328.71, -10676.96, -9999.19, -1211.67, -3409.07, 12906.14, 116967.30, 0.000, 0.000, 0.000, 19:37:33.981
219, 6567.37, 7219.43, -10621.93, -9947.02, -1122.93, -3428.78, 12899.17, 116945.91, 0.000, 0.000, 0.000, 19:37:33.981
220, 6630.51, 7644.81, -10606.44, -9950.48, -1060.61, -3408.31, 12915.60, 116974.92, 0.000, 0.000, 0.000, 19:37:33.982
221, 6588.22, 7995.20, -10663.84, -10015.55, -1125.10, -3389.69, 12933.46, 117015.87, -0.028, 0.974, -0.104, 19:37:33.982
222, 6496.00, 7805.47, -10720.90, -10056.74, -1223.96, -3411.81, 12926.75, 117013.19, 0.000, 0.000, 0.000, 19:37:33.982
223, 6480.96, 7330.99, -10697.68, -10012.73, -1222.89, -3411.19, 12902.57, 116969.83, 0.000, 0.000, 0.000, 19:37:33.982
224, 6559.72, 7219.01, -10632.34, -9949.74, -1125.57, -3421.20, 12895.70, 116948.13, 0.000, 0.000, 0.000, 19:37:33.983
225, 6623.58, 7638.91, -10620.68, -9955.82, -1068.82, -3404.98, 12915.37, 116979.95, 0.000, 0.000, 0.000, 19:37:33.983
226, 6580.26, 7987.08, -10680.65, -10021.96, -1137.99, -3388.30, 12935.20, 117022.78, 0.000, 0.000, 0.000, 19:37:33.983
227, 6499.62, 7805.52, -10724.46, -10049.17, -1223.47, -3412.26, 12928.23, 117019.85, 0.000, 0.000, 0.000, 19:37:33.984
228, 6486.77, 7330.34, -10703.49, -10008.55, -1223.36, -3412.31, 12904.00, 116976.53, 0.000, 0.000, 0.000, 19:37:33.984
229, 6564.89, 7214.27, -10639.68, -9948.96, -1129.70, -3425.11, 12897.29, 116954.80, 0.000, 0.000, 0.000, 19:37:33.984
230, 6631.29, 7638.06, -10619.16, -9948.81, -1067.32, -3408.28, 12915.60, 116985.09, -0.032, 0.984, -0.100, 19:37:33.985
231, 6587.53, 7993.01, -10676.38, -10015.46, -1130.48, -3386.38, 12933.03, 117025.66, 0.000, 0.000, 0.000, 19:37:33.985
232, 6505.27, 7812.20, -10718.47, -10044.02, -1215.20, -3399.21, 12927.20, 117024.14, 0.000, 0.000, 0.000, 19:37:33.986
233, 6496.94, 7341.50, -10689.43, -9993.17, -1208.18, -3409.49, 12906.97, 116985.09, 0.000, 0.000, 0.000, 19:37:33.986
234, 6574.70, 7223.28, -10626.38, -9932.69, -1113.94, -3425.99, 12898.01, 116961.18, 0.000, 0.000, 0.000, 19:37:33.986
235, 6637.15, 7643.76, -10609.32, -9936.94, -1053.59, -3410.65, 12914.79, 116990.13, 0.000, 0.000, 0.000, 19:37:33.987
236, 6595.31, 8002.24, -10664.55, -10002.99, -1113.94, -3379.18, 12933.14, 117031.80, 0.000, 0.000, 0.000, 19:37:33.987
237, 6512.16, 7823.80, -10714.87, -10037.70, -1206.19, -3389.40, 12926.82, 117030.22, 0.000, 0.000, 0.000, 19:37:33.987
238, 6498.68, 7347.53, -10692.49, -9999.30, -1210.28, -3407.30, 12903.19, 116987.93, 0.000, 0.000, 0.000, 19:37:33.988
239, 6571.81, 7223.77, -10625.73, -9942.21, -1112.20, -3428.94, 12894.92, 116964.55, 0.000, 0.000, 0.000, 19:37:33.988
240, 6632.23, 7639.22, -10614.66, -9951.44, -1055.11, -3409.62, 12912.49, 116994.13, -0.042, 0.988, -0.102, 19:37:33.988
241, 6592.65, 7999.15, -10671.44, -10017.74, -1118.62, -3380.34, 12930.19, 117035.27, 0.000, 0.000, 0.000, 19:37:33.992
242, 6500.42, 7821.19, -10723.67, -10061.24, -1212.85, -3391.30, 12923.29, 117033.30, 0.000, 0.000, 0.000, 19:37:33.993
243, 6481.58, 7339.15, -10703.54, -10018.99, -1215.62, -3404.01, 12901.54, 116992.87, 0.000, 0.000, 0.000, 19:37:33.994
244, 6560.80, 7215.81, -10638.98, -9953.81, -1117.45, -3425.65, 12894.25, 116970.27, 0.000, 0.000, 0.000, 19:37:33.995
245, 6628.23, 7636.85, -10621.59, -9957.75, -1055.67, -3408.73, 12911.98, 116999.73, 0.000, 0.000, 0.000, 19:37:33.995
246, 6589.41, 8000.99, -10677.38, -10025.05, -1124.23, -3384.03, 12929.97, 117041.38, 0.000, 0.000, 0.000, 19:37:33.996
247, 6507.49, 7832.72, -10724.72, -10058.44, -1220.45, -3391.05, 12921.92, 117038.71, 0.000, 0.000, 0.000, 19:37:33.996
248, 6496.38, 7356.45, -10697.59, -10012.71, -1222.26, -3401.02, 12898.59, 116996.94, 0.000, 0.000, 0.000, 19:37:33.997
249, 6573.60, 7223.82, -10634.78, -9952.43, -1127.24, -3417.40, 12888.78, 116972.02, 0.000, 0.000, 0.000, 19:37:33.998
250, 6632.79, 7629.39, -10625.13, -9961.21, -1070.56, -3397.04, 12905.47, 117000.52, -0.040, 0.986, -0.104, 19:37:33.999
251, 6591.48, 7986.84, -10686.19, -10028.67, -1137.19, -3382.56, 12926.64, 117045.11, 0.000, 0.000, 0.000, 19:37:33.999
252, 6508.02, 7822.91, -10738.20, -10062.55, -1230.82, -3415.41, 12921.34, 117045.04, 0.000, 0.000, 0.000, 19:37:33.999
253, 6491.89, 7350.35, -10716.50, -10016.33, -1233.73, -3414.92, 12898.77, 117003.63, 0.000, 0.000, 0.000, 19:37:34.000
254, 6569.49, 7212.44, -10645.31, -9949.70, -1133.32, -3416.44, 12890.36, 116979.57, 0.000, 0.000, 0.000, 19:37:34.000
255, 6638.27, 7621.10, -10626.15, -9952.94, -1068.50, -3400.46, 12908.78, 117009.43, 0.000, 0.000, 0.000, 19:37:34.001
0, 6603.60, 7989.56, -10681.61, -10016.64, -1127.24, -3381.28, 12927.18, 117051.03, 0.000, 0.000, 0.000, 19:37:34.001
1, 6524.00, 7831.78, -10727.79, -10044.67, -1214.53, -3403.72, 12922.26, 117051.59, 0.000, 0.000, 0.000, 19:37:34.003
2, 6500.13, 7355.42, -10711.47, -10011.21, -1226.91, -3405.67, 12898.25, 117009.26, 0.000, 0.000, 0.000, 19:37:34.003
3, 6568.08, 7209.69, -10653.38, -9955.71, -1140.45, -3409.33, 12887.46, 116982.63, 0.000, 0.000, 0.000, 19:37:34.003
4, 6629.06, 7609.18, -10639.97, -9964.68, -1083.75, -3392.12, 12903.95, 117010.20, -0.034, 0.982, -0.104, 19:37:34.003
5, 6593.54, 7977.76, -10691.71, -10029.18, -1135.25, -3378.96, 12923.38, 117052.80, 0.000, 0.000, 0.000, 19:37:34.003
6, 6506.70, 7820.79, -10740.30, -10065.86, -1217.90, -3408.82, 12917.70, 117052.53, 0.000, 0.000, 0.000, 19:37:34.003
7, 6482.81, 7342.10, -10721.33, -10031.06, -1225.08, -3409.09, 12896.46, 117012.92, 0.000, 0.000, 0.000, 19:37:34.004
8, 6553.96, 7196.17, -10653.31, -9970.38, -1126.33, -3415.79, 12887.59, 116988.00, 0.000, 0.000, 0.000, 19:37:34.004
9, 6621.99, 7607.39, -10628.34, -9969.08, -1048.25, -3405.78, 12907.22, 117018.53, 0.000, 0.000, 0.000, 19:37:34.004
10, 6584.33, 7983.73, -10683.04, -10032.16, -1108.80, -3375.78, 12925.86, 117060.35, 0.000, 0.000, 0.000, 19:37:34.004
11, 6500.58, 7831.60, -10731.21, -10062.96, -1205.68, -3388.90, 12919.98, 117060.28, 0.000, 0.000, 0.000, 19:37:34.004
12, 6489.11, 7358.46, -10702.17, -10016.08, -1206.44, -3395.83, 12895.41, 117017.41, 0.000, 0.000, 0.000, 19:37:34.004
13, 6568.02, 7215.01, -10634.22, -9951.22, -1110.41, -3416.13, 12886.29, 116992.34, 0.000, 0.000, 0.000, 19:37:34.004
14, 6639.61, 7624.47, -10609.86, -9947.44, -1042.75, -3402.99, 12903.86, 117020.79, -0.032, 0.986, -0.102, 19:37:34.004
15, 6610.15, 8006.24, -10660.42, -10008.55, -1105.63, -3370.06, 12921.95, 117062.59, 0.000, 0.000, 0.000, 19:37:34.005
16, 6526.31, 7857.29, -10714.62, -10048.92, -1209.81, -3385.26, 12918.48, 117065.05, 0.000, 0.000, 0.000, 19:37:34.005
17, 6505.34, 7378.27, -10698.39, -10014.68, -1226.42, -3395.77, 12895.26, 117023.76, 0.000, 0.000, 0.000, 19:37:34.005
18, 6576.44, 7218.00, -10630.06, -9950.57, -1135.42, -3408.46, 12884.86, 116997.37, 0.000, 0.000, 0.000, 19:37:34.005
19, 6641.95, 7612.53, -10610.51, -9948.92, -1066.07, -3396.50, 12903.24, 117026.53, 0.000, 0.000, 0.000, 19:37:34.005
20, 6603.02, 7982.90, -10666.39, -10013.56, -1124.00, -3374.51, 12922.95, 117069.94, 0.000, 0.000, 0.000, 19:37:34.005
21, 6519.40, 7837.19, -10715.11, -10048.29, -1212.90, -3404.55, 12916.36, 117069.41, 0.000, 0.000, 0.000, 19:37:34.005
22, 6494.81, 7362.40, -10700.76, -10013.96, -1221.28, -3408.73, 12892.51, 117027.54, 0.000, 0.000, 0.000, 19:37:34.005
23, 6569.92, 7206.63, -10634.33, -9945.68, -1127.02, -3408.66, 12883.41, 117001.90, -0.038, 0.990, -0.102, 19:37:34.006
24, 6633.68, 7601.83, -10618.24, -9948.49, -1063.07, -3393.75, 12901.94, 117030.73, 0.000, 0.000, 0.000, 19:37:34.006
25, 6600.78, 7981.54, -10675.37, -10013.22, -1120.58, -3373.01, 12919.62, 117071.88, 0.000, 0.000, 0.000, 19:37:34.006
26, 6522.55, 7841.89, -10724.50, -10049.59, -1208.76, -3397.64, 12913.67, 117072.06, 0.000, 0.000, 0.000, 19:37:34.006
27, 6498.26, 7367.49, -10704.72, -10013.11, -1216.18, -3401.40, 12892.73, 117033.15, 0.000, 0.000, 0.000, 19:37:34.006
28, 6569.87, 7205.11, -10637.11, -9943.89, -1120.90, -3413.80, 12883.37, 117007.42, 0.000, 0.000, 0.000, 19:37:34.006
29, 6634.62, 7598.94, -10613.70, -9944.29, -1048.97, -3398.31, 12899.93, 117034.11, 0.000, 0.000, 0.000, 19:37:34.006
30, 6603.93, 7988.36, -10662.41, -10003.08, -1099.64, -3367.31, 12920.85, 117078.27, 0.000, 0.000, 0.000, 19:37:34.006
31, 6521.43, 7851.85, -10712.36, -10041.61, -1190.61, -3372.36, 12915.42, 117079.26, 0.000, 0.000, 0.000, 19:37:34.006
32, 6503.46, 7382.94, -10694.08, -10005.87, -1195.86, -3385.91, 12891.57, 117037.58, 0.000, 0.000, 0.000, 19:37:34.007
33, 6572.69, 7225.36, -10630.96, -9944.25, -1100.49, -3410.54, 12882.49, 117012.02, -0.034, 0.986, -0.104, 19:37:34.007
34, 6643.63, 7627.78, -10608.34, -9940.65, -1026.53, -3398.29, 12899.66, 117039.48, 0.000, 0.000, 0.000, 19:37:34.007
35, 6612.96, 8025.04, -10661.76, -10001.58, -1080.53, -3364.76, 12917.99, 117081.85, 0.000, 0.000, 0.000, 19:37:34.007
36, 6525.39, 7893.41, -10714.51, -10040.83, -1182.72, -3362.98, 12912.51, 117083.41, 0.000, 0.000, 0.000, 19:37:34.007
37, 6504.78, 7421.09, -10692.83, -10002.58, -1189.47, -3384.10, 12888.08, 117041.48, 0.000, 0.000, 0.000, 19:37:34.007
38, 6576.93, 7253.61, -10624.32, -9936.96, -1095.82, -3402.45, 12876.15, 117013.63, 0.000, 0.000, 0.000, 19:37:34.007
39, 6640.90, 7640.63, -10606.64, -9941.09, -1039.09, -3385.26, 12891.44, 117039.52, 0.000, 0.000, 0.000, 19:37:34.007
40, 6605.36, 8020.39, -10663.84, -10006.65, -1103.42, -3363.36, 12912.13, 117084.34, 0.000, 0.000, 0.000, 19:37:34.007
41, 6522.82, 7885.09, -10712.95, -10039.42, -1193.76, -3384.41, 12907.06, 117086.34, 0.000, 0.000, 0.000, 19:37:34.008
42, 6496.11, 7402.76, -10701.37, -10005.18, -1212.83, -3388.86, 12884.28, 117045.94, 0.000, 0.000, 0.000, 19:37:34.008
43, 6564.77, 7217.40, -10639.56, -9944.83, -1128.92, -3394.54, 12873.60, 117018.51, -0.030, 0.984, -0.108, 19:37:34.008
44, 6631.90, 7593.69, -10617.21, -9943.60, -1058.98, -3380.52, 12889.87, 117044.37, 0.000, 0.000, 0.000, 19:37:34.008
45, 6594.84, 7977.81, -10671.53, -10010.81, -1118.59, -3365.44, 12910.10, 117088.09, 0.000, 0.000, 0.000, 19:37:34.008
46, 6511.49, 7855.77, -10723.05, -10049.70, -1204.31, -3396.66, 12907.77, 117092.94, 0.000, 0.000, 0.000, 19:37:34.008
47, 6495.15, 7387.59, -10696.47, -10003.90, -1202.68, -3394.05, 12885.60, 117053.27, 0.000, 0.000, 0.000, 19:37:34.008
48, 6570.85, 7213.42, -10627.63, -9938.48, -1107.84, -3403.68, 12875.83, 117026.64, 0.000, 0.000, 0.000, 19:37:34.009
49, 6645.31, 7605.45, -10603.85, -9937.05, -1032.67, -3392.79, 12894.50, 117054.80, 0.000, 0.000, 0.000, 19:37:34.009
50, 6611.62, 8003.80, -10658.27, -10000.80, -1085.24, -3364.65, 12913.83, 117097.74, 0.000, 0.000, 0.000, 19:37:34.009
51, 6524.50, 7879.46, -10714.24, -10044.96, -1183.35, -3379.90, 12909.27, 117100.30, 0.000, 0.000, 0.000, 19:37:34.009
52, 6496.27, 7403.41, -10696.25, -10011.82, -1193.11, -3385.08, 12885.85, 117059.55, 0.000, 0.000, 0.000, 19:37:34.009
53, 6561.29, 7220.75, -10632.77, -9951.26, -1104.38, -3398.02, 12873.84, 117030.66, -0.034, 0.986, -0.106, 19:37:34.009
54, 6632.12, 7604.87, -10608.52, -9947.75, -1035.53, -3386.85, 12889.92, 117056.33, 0.000, 0.000, 0.000, 19:37:34.009
55, 6609.21, 8007.80, -10651.72, -10006.03, -1076.77, -3356.25, 12910.26, 117100.63, 0.000, 0.000, 0.000, 19:37:34.010
56, 6524.72, 7889.18, -10699.20, -10046.04, -1169.09, -3359.47, 12905.00, 117103.04, 0.000, 0.000, 0.000, 19:37:34.010
57, 6494.99, 7412.24, -10687.51, -10015.39, -1184.33, -3379.38, 12882.92, 117064.02, 0.000, 0.000, 0.000, 19:37:34.010
58, 6577.98, 7240.47, -10614.75, -9938.41, -1087.55, -3400.24, 12872.21, 117036.59, 0.000, 0.000, 0.000, 19:37:34.010
59, 6653.42, 7631.02, -10586.70, -9930.68, -1015.26, -3385.53, 12888.33, 117062.43, 0.000, 0.000, 0.000, 19:37:34.010
60, 6622.80, 8034.27, -10639.79, -9996.01, -1071.01, -3353.50, 12907.86, 117106.44, 0.000, 0.000, 0.000, 19:37:34.010
61, 6532.48, 7917.57, -10700.54, -10043.89, -1178.43, -3367.07, 12903.55, 117110.64, 0.000, 0.000, 0.000, 19:37:34.011
62, 6503.75, 7437.86, -10688.18, -10011.41, -1201.61, -3376.92, 12879.32, 117070.19, 0.000, 0.000, 0.000, 19:37:34.011
63, 6578.99, 7245.81, -10618.00, -9940.02, -1112.38, -3384.99, 12866.22, 117040.86, -0.030, 0.980, -0.114, 19:37:34.011
64, 6659.66, 7624.43, -10587.60, -9928.67, -1036.20, -3375.43, 12882.76, 117067.48, 0.000, 0.000, 0.000, 19:37:34.011
65, 6633.46, 8023.56, -10636.59, -9990.31, -1087.95, -3352.29, 12901.36, 117110.69, 0.000, 0.000, 0.000, 19:37:34.011
66, 6543.88, 7909.90, -10694.75, -10035.02, -1185.96, -3378.29, 12896.98, 117114.80, 0.000, 0.000, 0.000, 19:37:34.011
67, 6513.05, 7436.09, -10681.21, -10000.77, -1201.23, -3378.24, 12872.84, 117074.27, 0.000, 0.000, 0.000, 19:37:34.012
68, 6578.25, 7237.96, -10616.88, -9938.57, -1115.22, -3381.48, 12861.68, 117046.20, 0.000, 0.000, 0.000, 19:37:34.012
69, 6641.84, 7605.61, -10594.10, -9935.33, -1043.89, -3368.54, 12877.00, 117070.68, 0.000, 0.000, 0.000, 19:37:34.012
70, 6608.56, 8002.55, -10648.35, -10000.53, -1095.03, -3350.48, 12897.94, 117115.52, 0.000, 0.000, 0.000, 19:37:34.012
71, 6525.10, 7896.60, -10696.78, -10038.39, -1177.94, -3377.50, 12895.70, 117121.46, 0.000, 0.000, 0.000, 19:37:34.012
72, 6500.67, 7429.47, -10676.09, -9999.66, -1182.56, -3381.26, 12873.24, 117082.32, -0.036, 0.984, -0.100, 19:37:34.012
73, 6565.38, 7232.58, -10613.73, -9938.95, -1091.86, -3384.55, 12861.66, 117053.35, 0.000, 0.000, 0.000, 19:37:34.012
74, 6634.67, 7604.49, -10590.90, -9939.40, -1019.84, -3371.83, 12877.06, 117077.78, 0.000, 0.000, 0.000, 19:37:34.013
75, 6610.93, 8016.30, -10635.50, -9994.16, -1060.30, -3344.98, 12897.47, 117122.29, 0.000, 0.000, 0.000, 19:37:34.458
76, 6522.71, 7913.25, -10686.50, -10034.93, -1151.94, -3346.21, 12894.09, 117127.32, 0.000, 0.000, 0.000, 19:37:34.459
77, 6491.39, 7438.62, -10676.42, -10011.10, -1169.47, -3360.45, 12870.11, 117086.57, 0.000, 0.000, 0.000, 19:37:34.459
78, 6556.35, 7238.59, -10614.87, -9953.14, -1084.62, -3384.39, 12858.04, 117057.11, 0.000, 0.000, 0.000, 19:37:34.460
79, 6640.28, 7617.23, -10582.59, -9936.69, -1006.54, -3372.43, 12872.48, 117080.76, 0.000, 0.000, 0.000, 19:37:34.460
80, 6621.61, 8035.21, -10629.68, -9990.94, -1054.40, -3342.59, 12892.87, 117125.77, 0.000, 0.000, 0.000, 19:37:34.460
81, 6534.73, 7936.50, -10692.67, -10036.98, -1162.09, -3355.78, 12890.54, 117132.68, 0.000, 0.000, 0.000, 19:37:34.461
82, 6505.34, 7455.49, -10689.41, -10010.38, -1195.86, -3365.81, 12867.09, 117093.16, -0.038, 0.982, -0.102, 19:37:34.461
83, 6570.81, 7236.31, -10628.68, -9947.89, -1119.98, -3372.30, 12851.98, 117060.75, 0.000, 0.000, 0.000, 19:37:34.461
84, 6641.95, 7593.69, -10607.22, -9947.82, -1054.62, -3361.70, 12867.83, 117085.23, 0.000, 0.000, 0.000, 19:37:34.461
85, 6607.62, 7988.65, -10663.70, -10019.33, -1111.40, -3345.85, 12889.45, 117130.76, 0.000, 0.000, 0.000, 19:37:34.461
86, 6523.87, 7893.92, -10716.86, -10062.89, -1199.60, -3376.83, 12885.36, 117135.90, 0.000, 0.000, 0.000, 19:37:34.461
87, 6495.17, 7423.15, -10707.29, -10031.55, -1217.32, -3379.76, 12861.55, 117096.02, 0.000, 0.000, 0.000, 19:37:34.461
88, 6556.75, 7205.73, -10645.44, -9967.02, -1137.41, -3370.69, 12848.30, 117064.98, 0.000, 0.000, 0.000, 19:37:34.461
89, 6625.48, 7562.35, -10616.16, -9957.86, -1062.29, -3358.89, 12864.77, 117089.52, 0.000, 0.000, 0.000, 19:37:34.462
90, 6599.04, 7969.87, -10664.15, -10017.85, -1106.77, -3349.07, 12887.68, 117136.34, 0.000, 0.000, 0.000, 19:37:34.462
91, 6517.59, 7883.30, -10716.01, -10056.52, -1197.32, -3382.94, 12884.08, 117141.76, 0.000, 0.000, 0.000, 19:37:34.462
92, 6488.22, 7416.51, -10697.34, -10020.55, -1213.54, -3381.53, 12863.45, 117104.79, -0.040, 0.980, -0.100, 19:37:34.462
93, 6547.52, 7192.86, -10633.55, -9959.47, -1130.98, -3371.54, 12851.38, 117074.77, 0.000, 0.000, 0.000, 19:37:34.462
94, 6619.54, 7546.69, -10601.21, -9948.96, -1052.34, -3360.34, 12863.18, 117094.44, 0.000, 0.000, 0.000, 19:37:34.462
95, 6598.86, 7964.78, -10642.27, -10007.19, -1084.60, -3339.69, 12886.21, 117140.93, 0.000, 0.000, 0.000, 19:37:34.462
96, 6517.39, 7885.83, -10689.61, -10047.42, -1165.35, -3359.06, 12884.71, 117148.22, 0.000, 0.000, 0.000, 19:37:34.462
97, 6490.59, 7424.58, -10670.19, -10008.91, -1177.51, -3366.62, 12863.65, 117110.91, 0.000, 0.000, 0.000, 19:37:34.462
98, 6558.20, 7211.95, -10605.88, -9943.06, -1092.64, -3375.40, 12848.97, 117078.39, 0.000, 0.000, 0.000, 19:37:34.462
99, 6637.91, 7576.32, -10572.96, -9926.72, -1012.80, -3366.66, 12863.52, 117100.77, 0.000, 0.000, 0.000, 19:37:34.463
100, 6619.83, 8001.88, -10613.70, -9980.30, -1056.37, -3337.50, 12883.50, 117144.73, 0.000, 0.000, 0.000, 19:37:34.463
101, 6539.87, 7923.94, -10662.14, -10016.40, -1155.79, -3342.99, 12881.85, 117152.48, 0.000, 0.000, 0.000, 19:37:34.463
102, 6505.14, 7453.86, -10657.07, -9988.01, -1185.07, -3357.81, 12860.21, 117115.07, -0.048, 0.986, -0.104, 19:37:34.463
103, 6571.44, 7231.21, -10598.01, -9927.46, -1105.56, -3370.40, 12845.68, 117082.86, 0.000, 0.000, 0.000, 19:37:34.464
104, 6651.68, 7584.75, -10569.45, -9917.78, -1032.90, -3360.52, 12860.25, 117104.98, 0.000, 0.000, 0.000, 19:37:34.464
105, 6625.88, 7998.50, -10627.70, -9991.94, -1091.30, -3339.62, 12881.29, 117149.91, 0.000, 0.000, 0.000, 19:37:34.464
106, 6537.75, 7919.56, -10683.60, -10039.31, -1183.79, -3363.13, 12881.40, 117159.80, 0.000, 0.000, 0.000, 19:37:34.464
107, 6502.64, 7447.56, -10674.86, -10012.17, -1205.68, -3365.79, 12859.14, 117121.70, 0.000, 0.000, 0.000, 19:37:34.464
108, 6563.10, 7210.40, -10615.76, -9951.98, -1125.45, -3366.69, 12844.61, 117088.89, 0.000, 0.000, 0.000, 19:37:34.465
109, 6628.72, 7549.26, -10597.39, -9951.49, -1052.19, -3358.57, 12860.14, 117111.76, 0.000, 0.000, 0.000, 19:37:34.465
110, 6600.69, 7961.07, -10655.59, -10015.88, -1104.18, -3344.78, 12881.53, 117156.84, 0.000, 0.000, 0.000, 19:37:34.465
111, 6520.99, 7891.46, -10714.29, -10059.07, -1197.67, -3383.96, 12878.43, 117163.33, 0.000, 0.000, 0.000, 19:37:34.465
112, 6479.90, 7421.76, -10718.98, -10041.63, -1232.34, -3399.45, 12853.95, 117123.14, -0.040, 0.982, -0.102, 19:37:34.465
113, 6536.72, 7179.92, -10659.12, -9981.10, -1159.99, -3375.58, 12843.71, 117094.52, 0.000, 0.000, 0.000, 19:37:34.466
114, 6623.78, 7525.68, -10610.84, -9956.16, -1067.79, -3360.85, 12858.15, 117115.60, 0.000, 0.000, 0.000, 19:37:34.466
115, 6604.02, 7949.44, -10650.65, -10012.22, -1105.18, -3339.84, 12878.47, 117158.99, 0.000, 0.000, 0.000, 19:37:34.466
116, 6523.38, 7883.08, -10696.32, -10051.65, -1189.98, -3371.11, 12878.69, 117168.69, 0.000, 0.000, 0.000, 19:37:34.466
117, 6492.87, 7421.90, -10675.91, -10016.31, -1205.41, -3374.13, 12856.46, 117130.54, 0.000, 0.000, 0.000, 19:37:34.466
118, 6563.54, 7200.46, -10600.78, -9937.56, -1111.55, -3374.60, 12843.45, 117098.93, 0.000, 0.000, 0.000, 19:37:34.468
119, 6647.10, 7558.67, -10564.35, -9921.58, -1026.39, -3363.65, 12857.01, 117119.31, 0.000, 0.000, 0.000, 19:37:34.468
120, 6626.76, 7989.54, -10612.07, -9982.67, -1063.09, -3336.60, 12880.17, 117166.21, 0.000, 0.000, 0.000, 19:37:34.469
121, 6546.22, 7928.10, -10660.66, -10019.82, -1152.81, -3338.41, 12879.05, 117175.28, -0.036, 0.986, -0.100, 19:37:34.469
122, 6516.38, 7468.10, -10650.20, -9986.31, -1179.81, -3351.24, 12857.24, 117138.09, 0.000, 0.000, 0.000, 19:37:34.469
123, 6580.64, 7238.75, -10593.27, -9923.68, -1105.94, -3371.60, 12842.24, 117104.70, 0.000, 0.000, 0.000, 19:37:34.470
124, 6664.93, 7586.52, -10562.23, -9905.13, -1028.78, -3366.26, 12857.21, 117126.52, 0.000, 0.000, 0.000, 19:37:34.470
125, 6645.42, 8009.88, -10613.93, -9963.60, -1078.99, -3337.47, 12877.80, 117170.92, 0.000, 0.000, 0.000, 19:37:34.470
126, 6561.71, 7946.02, -10674.66, -10009.83, -1183.06, -3354.71, 12875.32, 117178.91, 0.000, 0.000, 0.000, 19:37:34.470
127, 6527.16, 7484.39, -10669.67, -9983.16, -1208.98, -3362.57, 12852.79, 117141.15, 0.000, 0.000, 0.000, 19:37:34.470
128, 6587.24, 7239.15, -10611.92, -9922.16, -1129.17, -3364.59, 12839.98, 117109.86, 0.000, 0.000, 0.000, 19:37:34.470
129, 6660.46, 7569.98, -10587.19, -9917.51, -1053.01, -3355.78, 12853.30, 117129.69, 0.000, 0.000, 0.000, 19:37:34.471
130, 6641.78, 7995.06, -10634.83, -9980.54, -1089.11, -3328.82, 12875.01, 117174.88, 0.000, 0.000, 0.000, 19:37:34.471
131, 6554.89, 7934.44, -10695.58, -10032.85, -1179.97, -3342.97, 12873.51, 117183.69, -0.042, 0.984, -0.100, 19:37:34.471
132, 6512.81, 7466.56, -10697.95, -10016.42, -1206.66, -3353.75, 12850.11, 117145.00, 0.000, 0.000, 0.000, 19:37:34.471
133, 6566.50, 7214.09, -10640.64, -9958.39, -1126.10, -3364.47, 12836.00, 117111.91, 0.000, 0.000, 0.000, 19:37:34.471
134, 6636.75, 7542.13, -10615.49, -9950.55, -1049.53, -3355.82, 12851.34, 117133.30, 0.000, 0.000, 0.000, 19:37:34.471
135, 6618.13, 7970.88, -10660.28, -10007.64, -1090.34, -3330.68, 12872.77, 117178.48, 0.000, 0.000, 0.000, 19:37:34.471
136, 6530.82, 7911.98, -10720.21, -10056.09, -1191.77, -3350.91, 12873.51, 117189.43, 0.000, 0.000, 0.000, 19:37:34.471
137, 6490.97, 7447.78, -10718.47, -10032.94, -1220.99, -3361.28, 12849.82, 117150.79, 0.000, 0.000, 0.000, 19:37:34.472
138, 6554.58, 7201.53, -10650.07, -9961.77, -1136.12, -3363.36, 12836.00, 117118.11, 0.000, 0.000, 0.000, 19:37:34.472
139, 6636.75, 7537.03, -10610.37, -9943.51, -1051.02, -3357.52, 12852.28, 117140.41, 0.000, 0.000, 0.000, 19:37:34.472
140, 6622.89, 7969.40, -10649.64, -9997.02, -1091.37, -3330.66, 12874.81, 117186.86, 0.000, 0.000, 0.000, 19:37:34.472
141, 6540.70, 7918.28, -10704.50, -10041.92, -1188.80, -3346.26, 12873.13, 117195.91, -0.036, 0.986, -0.094, 19:37:34.472
142, 6508.25, 7457.57, -10698.33, -10014.23, -1215.06, -3353.57, 12849.41, 117157.29, 0.000, 0.000, 0.000, 19:37:34.472
143, 6570.52, 7206.11, -10630.76, -9945.54, -1130.01, -3362.80, 12833.88, 117122.78, 0.000, 0.000, 0.000, 19:37:34.473
144, 6659.23, 7544.94, -10585.03, -9920.82, -1032.23, -3359.33, 12846.80, 117141.53, 0.000, 0.000, 0.000, 19:37:34.473
145, 6640.44, 7985.63, -10628.19, -9980.39, -1069.13, -3324.67, 12869.87, 117188.36, 0.000, 0.000, 0.000, 19:37:34.473
146, 6552.39, 7939.74, -10689.81, -10031.19, -1171.99, -3328.55, 12869.80, 117199.16, 0.000, 0.000, 0.000, 19:37:34.473
147, 6518.19, 7480.93, -10685.79, -10002.83, -1197.25, -3343.22, 12846.20, 117160.48, 0.000, 0.000, 0.000, 19:37:34.473
148, 6585.92, 7230.95, -10620.07, -9931.91, -1108.62, -3362.06, 12831.24, 117126.52, 0.000, 0.000, 0.000, 19:37:34.473
149, 6659.84, 7555.14, -10591.78, -9925.31, -1030.84, -3351.98, 12843.16, 117144.23, 0.000, 0.000, 0.000, 19:37:34.473
150, 6638.65, 7989.30, -10643.05, -9988.82, -1076.64, -3320.78, 12863.58, 117188.70, 0.000, 0.000, 0.000, 19:37:34.473
151, 6556.95, 7948.26, -10703.33, -10036.63, -1180.71, -3335.19, 12864.97, 117201.28, -0.044, 0.984, -0.096, 19:37:34.474
152, 6517.50, 7483.86, -10702.62, -10015.28, -1212.56, -3347.55, 12843.07, 117164.91, 0.000, 0.000, 0.000, 19:37:34.474
153, 6578.88, 7221.89, -10642.11, -9953.61, -1135.07, -3354.64, 12828.85, 117131.63, 0.000, 0.000, 0.000, 19:37:34.474
154, 6654.29, 7539.29, -10617.10, -9945.88, -1059.20, -3350.35, 12843.60, 117151.93, 0.000, 0.000, 0.000, 19:37:34.474
155, 6636.79, 7972.55, -10664.35, -10005.69, -1096.35, -3324.51, 12865.75, 117197.52, 0.000, 0.000, 0.000, 19:37:34.474
156, 6552.44, 7931.99, -10725.86, -10057.41, -1191.33, -3341.68, 12863.88, 117206.82, 0.000, 0.000, 0.000, 19:37:34.474
157, 6508.11, 7468.52, -10727.18, -10039.33, -1225.48, -3353.23, 12843.27, 117171.48, 0.000, 0.000, 0.000, 19:37:34.474
158, 6564.24, 7201.75, -10662.74, -9973.79, -1152.10, -3349.90, 12828.25, 117137.27, 0.000, 0.000, 0.000, 19:37:34.474
159, 6645.08, 7516.78, -10622.53, -9952.83, -1071.14, -3342.84, 12841.34, 117155.70, 0.000, 0.000, 0.000, 19:37:34.475
160, 6635.23, 7953.02, -10661.60, -10001.13, -1107.24, -3321.89, 12862.04, 117199.98, 0.000, 0.000, 0.000, 19:37:34.475
161, 6560.64, 7924.54, -10709.30, -10039.11, -1195.53, -3342.61, 12860.57, 117210.04, -0.042, 0.982, -0.108, 19:37:34.475
162, 6529.75, 7475.16, -10693.57, -10001.60, -1220.65, -3347.49, 12840.41, 117175.48, 0.000, 0.000, 0.000, 19:37:34.475
163, 6592.29, 7212.10, -10622.82, -9928.62, -1142.38, -3353.28, 12825.63, 117141.42, 0.000, 0.000, 0.000, 19:37:34.475
164, 6679.06, 7533.86, -10582.30, -9905.62, -1049.24, -3351.64, 12840.32, 117161.23, 0.000, 0.000, 0.000, 19:37:34.475
165, 6664.46, 7977.23, -10626.04, -9963.31, -1082.79, -3320.02, 12861.13, 117205.81, 0.000, 0.000, 0.000, 19:37:34.475
166, 6579.10, 7948.28, -10682.10, -10013.47, -1175.17, -3328.15, 12862.31, 117218.53, 0.000, 0.000, 0.000, 19:37:34.476
167, 6537.30, 7494.16, -10679.35, -9990.98, -1201.21, -3337.61, 12838.60, 117180.49, 0.000, 0.000, 0.000, 19:37:34.476
168, 6598.64, 7229.74, -10614.53, -9926.77, -1117.74, -3354.53, 12824.04, 117146.34, 0.000, 0.000, 0.000, 19:37:34.476
169, 6680.18, 7548.83, -10577.16, -9909.96, -1027.49, -3349.43, 12837.19, 117164.55, 0.000, 0.000, 0.000, 19:37:34.476
170, 6660.44, 7989.59, -10627.07, -9972.48, -1061.84, -3314.85, 12859.03, 117210.20, -0.038, 0.980, -0.110, 19:37:34.476
171, 6573.07, 7959.25, -10691.93, -10026.63, -1161.71, -3315.30, 12861.77, 117224.66, 0.000, 0.000, 0.000, 19:37:34.476
172, 6527.65, 7498.70, -10693.75, -10010.97, -1192.80, -3333.74, 12839.49, 117188.11, 0.000, 0.000, 0.000, 19:37:34.476
173, 6583.28, 7226.81, -10628.23, -9942.41, -1105.76, -3353.10, 12824.54, 117153.71, 0.000, 0.000, 0.000, 19:37:34.477
174, 6658.83, 7538.71, -10593.21, -9927.39, -1019.51, -3345.54, 12836.11, 117170.19, 0.000, 0.000, 0.000, 19:37:34.478
175, 6643.07, 7982.61, -10639.99, -9989.49, -1059.14, -3309.94, 12856.97, 117214.80, 0.000, 0.000, 0.000, 19:37:34.478
176, 6555.34, 7954.56, -10702.39, -10041.48, -1163.79, -3312.46, 12857.57, 117227.36, 0.000, 0.000, 0.000, 19:37:34.478
177, 6511.80, 7497.42, -10702.80, -10017.45, -1195.24, -3326.77, 12835.85, 117191.58, 0.000, 0.000, 0.000, 19:37:34.478
178, 6571.88, 7224.04, -10635.97, -9947.51, -1113.41, -3341.45, 12820.54, 117156.73, 0.000, 0.000, 0.000, 19:37:34.478
179, 6649.55, 7527.31, -10604.09, -9937.76, -1038.19, -3335.82, 12832.99, 117174.05, 0.000, 0.000, 0.000, 19:37:34.479
180, 6631.38, 7964.89, -10650.43, -9998.92, -1079.97, -3312.22, 12854.55, 117219.05, -0.036, 0.978, -0.114, 19:37:34.479
181, 6548.37, 7942.09, -10706.37, -10048.09, -1178.97, -3337.96, 12853.93, 117230.80, 0.000, 0.000, 0.000, 19:37:34.479
182, 6512.67, 7487.74, -10697.81, -10020.38, -1214.24, -3343.69, 12832.20, 117195.83, 0.000, 0.000, 0.000, 19:37:34.479
183, 6570.50, 7203.12, -10632.86, -9951.42, -1139.36, -3339.42, 12815.57, 117159.99, 0.000, 0.000, 0.000, 19:37:34.479
184, 6654.32, 7507.35, -10594.08, -9928.06, -1052.81, -3338.55, 12831.04, 117180.34, 0.000, 0.000, 0.000, 19:37:34.480
185, 6647.88, 7962.05, -10632.32, -9977.62, -1075.83, -3311.48, 12852.88, 117226.02, 0.000, 0.000, 0.000, 19:37:34.480
186, 6566.67, 7948.77, -10687.84, -10018.54, -1166.63, -3319.06, 12852.32, 117237.89, 0.000, 0.000, 0.000, 19:37:34.480
187, 6528.30, 7498.85, -10682.81, -9990.47, -1195.68, -3328.87, 12831.42, 117203.42, 0.000, 0.000, 0.000, 19:37:34.481
188, 6583.80, 7214.49, -10623.83, -9930.97, -1121.86, -3338.32, 12814.59, 117166.68, 0.000, 0.000, 0.000, 19:37:34.481
189, 6673.02, 7520.56, -10582.83, -9911.03, -1030.57, -3336.76, 12828.16, 117184.09, 0.000, 0.000, 0.000, 19:37:34.481
190, 6664.62, 7969.96, -10623.49, -9968.86, -1063.36, -3307.21, 12851.34, 117230.49, -0.038, 0.980, -0.114, 19:37:34.481
191, 6581.78, 7957.87, -10684.49, -10021.16, -1163.05, -3316.82, 12852.95, 117244.13, 0.000, 0.000, 0.000, 19:37:34.482
192, 6541.39, 7511.48, -10678.66, -9999.66, -1192.82, -3325.02, 12831.04, 117208.27, 0.000, 0.000, 0.000, 19:37:34.482
193, 6593.07, 7225.72, -10617.01, -9936.96, -1117.30, -3340.27, 12815.33, 117172.69, 0.000, 0.000, 0.000, 19:37:34.482
194, 6676.80, 7526.84, -10577.72, -9912.08, -1022.30, -3334.08, 12826.21, 117187.60, 0.000, 0.000, 0.000, 19:37:34.482
195, 6661.00, 7973.47, -10627.07, -9973.39, -1059.90, -3304.46, 12849.75, 117234.76, 0.000, 0.000, 0.000, 19:37:34.941
196, 6576.55, 7961.76, -10684.18, -10024.53, -1149.86, -3305.24, 12851.20, 117248.55, 0.000, 0.000, 0.000, 19:37:34.941
197, 6525.23, 7505.18, -10685.00, -10013.04, -1181.22, -3318.59, 12829.70, 117213.39, 0.000, 0.000, 0.000, 19:37:34.941
198, 6574.16, 7216.08, -10623.02, -9953.75, -1100.35, -3340.11, 12814.66, 117178.13, 0.000, 0.000, 0.000, 19:37:34.942
199, 6652.24, 7515.71, -10581.25, -9933.67, -1009.85, -3335.98, 12826.01, 117193.39, 0.000, 0.000, 0.000, 19:37:34.942
200, 6633.48, 7966.54, -10624.54, -9993.73, -1044.47, -3304.50, 12847.58, 117238.72, -0.038, 0.980, -0.112, 19:37:34.942
201, 6544.90, 7959.34, -10682.48, -10048.38, -1147.85, -3307.59, 12848.39, 117252.45, 0.000, 0.000, 0.000, 19:37:34.942
202, 6495.73, 7505.04, -10681.47, -10024.35, -1188.58, -3320.84, 12826.39, 117217.48, 0.000, 0.000, 0.000, 19:37:34.942
203, 6549.24, 7207.63, -10618.80, -9954.33, -1120.40, -3330.83, 12809.54, 117180.88, 0.000, 0.000, 0.000, 19:37:34.942
204, 6634.53, 7493.40, -10580.02, -9928.69, -1040.50, -3327.35, 12821.88, 117197.01, 0.000, 0.000, 0.000, 19:37:34.942
205, 6633.19, 7943.23, -10613.77, -9975.00, -1068.68, -3299.09, 12843.83, 117242.52, 0.000, 0.000, 0.000, 19:37:34.942
206, 6555.97, 7942.56, -10676.56, -10027.15, -1170.23, -3316.75, 12845.52, 117257.20, 0.000, 0.000, 0.000, 19:37:34.943
207, 6514.21, 7494.74, -10681.97, -10007.66, -1212.29, -3333.96, 12824.27, 117222.80, 0.000, 0.000, 0.000, 19:37:34.943
208, 6572.55, 7194.67, -10617.50, -9939.87, -1142.69, -3325.92, 12806.43, 117185.16, 0.000, 0.000, 0.000, 19:37:34.943
209, 6660.55, 7479.23, -10576.04, -9916.84, -1051.25, -3321.11, 12816.67, 117199.02, 0.000, 0.000, 0.000, 19:37:34.943
210, 6655.75, 7934.85, -10615.45, -9971.81, -1071.30, -3300.46, 12842.15, 117247.66, -0.044, 0.984, -0.110, 19:37:34.943
211, 6576.75, 7944.17, -10675.46, -10024.06, -1165.80, -3316.13, 12844.09, 117262.66, 0.000, 0.000, 0.000, 19:37:34.943
212, 6532.50, 7502.77, -10679.69, -10003.48, -1203.84, -3327.84, 12821.79, 117227.52, 0.000, 0.000, 0.000, 19:37:34.943
213, 6585.16, 7204.19, -10621.21, -9936.47, -1131.74, -3326.43, 12805.78, 117191.55, 0.000, 0.000, 0.000, 19:37:34.944
214, 6669.74, 7485.00, -10585.03, -9912.77, -1045.59, -3321.76, 12817.47, 117206.42, 0.000, 0.000, 0.000, 19:37:34.944
215, 6664.89, 7934.85, -10630.78, -9969.24, -1080.62, -3301.31, 12840.25, 117252.33, 0.000, 0.000, 0.000, 19:37:34.944
216, 6589.32, 7945.73, -10693.10, -10021.72, -1178.52, -3328.15, 12842.42, 117267.73, 0.000, 0.000, 0.000, 19:37:34.944
217, 6543.38, 7504.96, -10702.64, -10009.89, -1218.82, -3343.89, 12820.76, 117233.55, 0.000, 0.000, 0.000, 19:37:34.944
218, 6594.59, 7200.48, -10643.21, -9947.80, -1148.32, -3327.41, 12803.48, 117196.25, 0.000, 0.000, 0.000, 19:37:34.944
219, 6675.26, 7474.78, -10595.11, -9922.41, -1049.01, -3322.27, 12815.55, 117210.89, -0.038, 0.986, -0.108, 19:37:34.945
220, 6660.44, 7928.86, -10631.41, -9978.87, -1067.01, -3296.21, 12838.53, 117256.51, 0.000, 0.000, 0.000, 19:37:34.945
221, 6568.26, 7943.61, -10690.37, -10034.03, -1157.08, -3317.38, 12841.05, 117272.09, 0.000, 0.000, 0.000, 19:37:34.945
222, 6510.50, 7502.47, -10695.24, -10022.21, -1194.34, -3331.86, 12820.69, 117238.80, 0.000, 0.000, 0.000, 19:37:34.945
223, 6556.62, 7192.43, -10631.14, -9958.46, -1121.74, -3327.97, 12804.42, 117202.02, 0.000, 0.000, 0.000, 19:37:34.945
224, 6641.80, 7466.91, -10588.38, -9931.86, -1035.76, -3321.78, 12816.00, 117216.21, 0.000, 0.000, 0.000, 19:37:34.945
225, 6644.01, 7930.13, -10619.34, -9976.79, -1055.25, -3299.97, 12839.04, 117262.32, 0.000, 0.000, 0.000, 19:37:34.946
226, 6559.66, 7950.27, -10677.47, -10026.79, -1151.90, -3323.70, 12841.39, 117278.26, 0.000, 0.000, 0.000, 19:37:34.947
227, 6509.45, 7509.02, -10680.60, -10008.10, -1197.09, -3339.13, 12820.83, 117245.11, 0.000, 0.000, 0.000, 19:37:34.947
228, 6563.41, 7198.51, -10614.71, -9935.84, -1132.09, -3325.65, 12804.33, 117208.32, 0.000, 0.000, 0.000, 19:37:34.948
229, 6653.44, 7468.88, -10565.74, -9903.52, -1038.95, -3320.44, 12815.77, 117222.05, -0.032, 0.982, -0.110, 19:37:34.948
230, 6654.11, 7928.74, -10598.48, -9953.52, -1057.48, -3299.90, 12839.15, 117268.55, 0.000, 0.000, 0.000, 19:37:34.948
231, 6582.34, 7956.04, -10654.90, -9999.01, -1148.52, -3314.00, 12840.83, 117283.82, 0.000, 0.000, 0.000, 19:37:34.949
232, 6535.11, 7522.01, -10659.52, -9981.13, -1189.52, -3329.00, 12822.64, 117253.18, 0.000, 0.000, 0.000, 19:37:34.949
233, 6587.53, 7211.81, -10600.29, -9919.01, -1120.07, -3330.12, 12806.52, 117216.86, 0.000, 0.000, 0.000, 19:37:34.949
234, 6673.02, 7479.25, -10559.72, -9894.13, -1029.83, -3325.02, 12816.40, 117229.02, 0.000, 0.000, 0.000, 19:37:34.950
235, 6671.53, 7936.32, -10599.93, -9947.11, -1057.28, -3301.49, 12840.29, 117276.13, 0.000, 0.000, 0.000, 19:37:34.950
236, 6588.13, 7959.70, -10664.51, -10005.67, -1155.00, -3319.32, 12842.19, 117292.07, 0.000, 0.000, 0.000, 19:37:34.950
