%OpenBCI Raw EEG Data
%
%Sample Rate = 250.0 Hz
%First Column = SampleIndex
%Last Column = Timestamp 
%Other Columns = EEG data in microvolts followed by Accel Data (in G) interleaved with Aux Data
0, 0.00, 0.00, 0.00, 0.00, 0.00, 0.00, 0.00, 0.00, -0.090, 0.970, 0.138, 18:58:36.077
1, 17447.88, -8711.64, -9044.75, -15540.27, -9112.34, -9289.54, -14981.52, 66897.74, 0.000, 0.000, 0.000, 18:58:36.574
2, 17163.48, -9481.97, -9152.17, -15487.90, -9122.95, -9310.19, -15363.23, 66857.13, 0.000, 0.000, 0.000, 18:58:36.574
3, 16828.92, -9801.84, -9138.91, -15420.04, -9200.29, -9285.63, -15983.78, 66794.56, 0.000, 0.000, 0.000, 18:58:36.574
4, 16944.88, -9328.48, -9013.32, -15437.90, -9184.13, -9256.01, -15807.29, 66802.41, 0.000, 0.000, 0.000, 18:58:36.575
5, 17300.94, -8595.81, -8974.36, -15524.07, -9101.09, -9243.63, -15003.97, 66873.47, 0.000, 0.000, 0.000, 18:58:36.575
6, 17422.71, -8718.05, -9055.45, -15558.51, -9138.26, -9286.43, -14552.37, 66911.09, 0.000, 0.000, 0.000, 18:58:36.575
7, 17136.32, -9494.73, -9163.54, -15510.48, -9142.91, -9314.06, -14930.18, 66870.02, -0.088, 0.968, 0.140, 18:58:36.575
8, 16787.61, -9833.25, -9160.04, -15442.24, -9168.42, -9294.57, -15560.93, 66807.26, 0.000, 0.000, 0.000, 18:58:36.576
9, 16888.93, -9380.31, -9031.80, -15447.04, -9188.35, -9265.60, -15403.23, 66815.98, 0.000, 0.000, 0.000, 18:58:36.576
10, 17250.38, -8633.61, -8979.59, -15525.32, -9125.57, -9263.48, -14611.67, 66883.03, 0.000, 0.000, 0.000, 18:58:36.576
11, 17378.77, -8742.95, -9058.87, -15558.27, -9153.06, -9311.31, -14166.22, 66919.94, 0.000, 0.000, 0.000, 18:58:36.576
12, 17094.35, -9513.57, -9164.42, -15507.51, -9158.81, -9344.68, -14543.14, 66881.00, 0.000, 0.000, 0.000, 18:58:36.577
13, 16745.61, -9841.96, -9158.25, -15438.48, -9158.40, -9314.84, -15166.24, 66817.37, 0.000, 0.000, 0.000, 18:58:36.578
14, 16837.14, -9411.69, -9024.61, -15443.42, -9167.14, -9271.06, -15032.15, 66825.21, 0.000, 0.000, 0.000, 18:58:36.578
15, 17198.39, -8652.67, -8959.23, -15510.52, -9118.80, -9273.09, -14269.53, 66891.95, 0.000, 0.000, 0.000, 18:58:36.578
16, 17332.44, -8730.77, -9020.87, -15532.85, -9142.67, -9316.18, -13829.18, 66928.34, 0.000, 0.000, 0.000, 18:58:36.578
17, 17043.85, -9513.44, -9123.00, -15480.84, -9147.76, -9347.25, -14204.60, 66886.68, -0.088, 0.974, 0.148, 18:58:36.578
18, 16694.36, -9858.68, -9113.12, -15411.17, -9190.34, -9320.10, -14815.61, 66827.58, 0.000, 0.000, 0.000, 18:58:36.578
19, 16795.39, -9414.55, -8973.04, -15411.44, -9208.83, -9276.71, -14667.01, 66836.16, 0.000, 0.000, 0.000, 18:58:36.579
20, 17158.05, -8660.34, -8910.66, -15485.67, -9116.76, -9269.56, -13901.13, 66901.36, 0.000, 0.000, 0.000, 18:58:36.579
21, 17274.25, -8764.99, -8989.76, -15527.51, -9133.15, -9315.42, -13470.70, 66936.25, 0.000, 0.000, 0.000, 18:58:36.579
22, 16977.71, -9542.58, -9099.26, -15475.81, -9143.03, -9341.89, -13848.94, 66896.87, 0.000, 0.000, 0.000, 18:58:36.579
23, 16642.21, -9864.00, -9092.96, -15403.53, -9214.37, -9311.56, -14451.32, 66834.53, 0.000, 0.000, 0.000, 18:58:36.580
24, 16760.01, -9410.04, -8961.28, -15411.46, -9227.65, -9277.78, -14293.69, 66842.24, 0.000, 0.000, 0.000, 18:58:36.580
25, 17136.39, -8657.48, -8914.86, -15493.94, -9126.19, -9281.20, -13530.74, 66908.65, 0.000, 0.000, 0.000, 18:58:36.580
26, 17269.05, -8760.52, -8998.23, -15527.06, -9130.71, -9332.68, -13094.93, 66943.49, 0.000, 0.000, 0.000, 18:58:36.580
27, 16982.77, -9538.18, -9112.14, -15477.60, -9146.40, -9362.18, -13474.50, 66902.77, -0.090, 0.974, 0.148, 18:58:36.581
28, 16646.48, -9868.27, -9113.23, -15413.41, -9219.07, -9329.89, -14081.58, 66841.57, 0.000, 0.000, 0.000, 18:58:36.581
29, 16746.82, -9439.34, -8995.77, -15427.75, -9218.66, -9292.47, -13947.15, 66849.30, 0.000, 0.000, 0.000, 18:58:36.582
30, 17118.33, -8685.04, -8948.54, -15506.54, -9131.67, -9313.19, -13195.37, 66913.95, 0.000, 0.000, 0.000, 18:58:36.582
31, 17256.62, -8778.22, -9032.14, -15540.65, -9155.77, -9373.83, -12765.37, 66950.24, 0.000, 0.000, 0.000, 18:58:36.582
32, 16967.23, -9555.88, -9150.85, -15495.12, -9170.94, -9418.51, -13152.95, 66910.26, 0.000, 0.000, 0.000, 18:58:36.582
33, 16616.85, -9885.21, -9150.89, -15426.93, -9187.73, -9398.01, -13778.26, 66845.70, 0.000, 0.000, 0.000, 18:58:36.582
34, 16704.55, -9473.32, -9026.91, -15433.86, -9189.38, -9354.29, -13659.22, 66853.35, 0.000, 0.000, 0.000, 18:58:36.583
35, 17064.46, -8720.60, -8969.53, -15505.87, -9139.38, -9368.17, -12920.11, 66921.61, 0.000, 0.000, 0.000, 18:58:36.583
36, 17196.16, -8801.92, -9043.90, -15538.08, -9175.30, -9427.25, -12494.87, 66955.37, 0.000, 0.000, 0.000, 18:58:36.584
37, 16901.72, -9579.60, -9160.19, -15494.32, -9187.35, -9467.82, -12884.28, 66912.65, -0.090, 0.970, 0.152, 18:58:36.584
38, 16565.53, -9895.99, -9147.85, -15419.35, -9220.52, -9429.40, -13494.53, 66851.36, 0.000, 0.000, 0.000, 18:58:36.585
39, 16670.73, -9467.77, -9017.72, -15420.22, -9228.52, -9374.92, -13357.89, 66859.14, 0.000, 0.000, 0.000, 18:58:36.585
40, 17037.71, -8707.21, -8962.69, -15489.40, -9148.61, -9383.64, -12609.98, 66924.98, 0.000, 0.000, 0.000, 18:58:36.585
41, 17176.96, -8782.65, -9031.02, -15515.57, -9158.38, -9424.30, -12178.28, 66961.48, 0.000, 0.000, 0.000, 18:58:36.585
42, 16897.09, -9562.66, -9132.88, -15467.72, -9168.55, -9443.92, -12556.34, 66919.60, 0.000, 0.000, 0.000, 18:58:36.585
43, 16576.08, -9887.12, -9116.47, -15393.53, -9243.21, -9398.01, -13153.84, 66860.16, 0.000, 0.000, 0.000, 18:58:36.585
44, 16694.21, -9443.34, -8979.50, -15394.67, -9263.39, -9334.89, -13001.54, 66867.56, 0.000, 0.000, 0.000, 18:58:36.586
45, 17076.31, -8689.49, -8917.63, -15463.29, -9164.30, -9338.49, -12235.99, 66934.55, 0.000, 0.000, 0.000, 18:58:36.586
46, 17216.41, -8793.00, -8988.24, -15494.14, -9137.42, -9377.07, -11799.37, 66972.22, 0.000, 0.000, 0.000, 18:58:36.586
47, 16928.27, -9565.74, -9097.16, -15446.13, -9169.00, -9402.51, -12177.70, 66931.52, -0.088, 0.972, 0.152, 18:58:36.588
48, 16605.83, -9869.68, -9085.58, -15376.93, -9269.13, -9368.26, -12768.79, 66867.74, 0.000, 0.000, 0.000, 18:58:36.588
49, 16728.69, -9418.53, -8951.52, -15381.29, -9275.57, -9311.33, -12608.33, 66874.27, 0.000, 0.000, 0.000, 18:58:36.588
50, 17119.27, -8667.60, -8895.46, -15458.26, -9186.41, -9321.53, -11830.35, 66941.13, 0.000, 0.000, 0.000, 18:58:36.588
51, 17259.75, -8781.31, -8979.97, -15494.74, -9134.51, -9377.61, -11386.49, 66978.59, 0.000, 0.000, 0.000, 18:58:36.589
52, 16962.72, -9568.83, -9105.21, -15451.96, -9159.43, -9416.70, -11768.89, 66938.53, 0.000, 0.000, 0.000, 18:58:36.590
53, 16622.81, -9898.38, -9108.47, -15390.94, -9266.52, -9393.07, -12370.93, 66877.20, 0.000, 0.000, 0.000, 18:58:36.590
54, 16731.40, -9459.75, -8984.46, -15404.58, -9273.72, -9354.32, -12221.42, 66884.11, 0.000, 0.000, 0.000, 18:58:36.591
55, 17107.29, -8698.09, -8935.69, -15486.29, -9182.25, -9385.79, -11455.63, 66951.90, 0.000, 0.000, 0.000, 18:58:36.591
56, 17238.29, -8790.09, -9022.30, -15527.47, -9168.89, -9451.68, -11019.57, 66987.69, -0.096, 0.970, 0.148, 18:58:36.591
57, 16947.27, -9573.72, -9134.46, -15475.54, -9180.62, -9480.09, -11398.18, 66946.18, 0.000, 0.000, 0.000, 18:58:36.592
58, 16616.02, -9900.93, -9119.98, -15401.71, -9258.00, -9441.29, -11996.67, 66883.63, 0.000, 0.000, 0.000, 18:58:36.593
59, 16728.29, -9461.43, -8993.74, -15415.51, -9266.41, -9398.73, -11844.28, 66891.41, 0.000, 0.000, 0.000, 18:58:36.593
60, 17097.27, -8704.71, -8941.93, -15494.25, -9160.50, -9415.58, -11083.85, 66959.30, 0.000, 0.000, 0.000, 18:58:36.593
61, 17230.09, -8796.84, -9017.12, -15526.15, -9156.10, -9459.19, -10648.75, 66995.02, 0.000, 0.000, 0.000, 18:58:36.593
62, 16942.76, -9578.93, -9122.42, -15474.45, -9179.24, -9485.77, -11026.05, 66954.34, 0.000, 0.000, 0.000, 18:58:36.594
63, 16622.57, -9895.85, -9103.75, -15398.85, -9273.27, -9444.48, -11612.11, 66895.33, 0.000, 0.000, 0.000, 18:58:36.594
64, 16751.22, -9440.66, -8967.94, -15399.93, -9286.64, -9387.15, -11443.38, 66902.97, 0.000, 0.000, 0.000, 18:58:36.594
65, 17141.51, -8675.32, -8916.02, -15473.20, -9193.94, -9398.84, -10661.47, 66971.23, 0.000, 0.000, 0.000, 18:58:36.595
66, 17283.06, -8767.49, -8992.31, -15502.63, -9140.95, -9443.19, -10212.11, 67009.55, -0.096, 0.966, 0.150, 18:58:36.595
67, 17002.05, -9549.11, -9093.25, -15452.10, -9187.71, -9461.85, -10575.82, 66970.30, 0.000, 0.000, 0.000, 18:58:36.595
68, 16682.09, -9874.82, -9081.60, -15386.52, -9278.19, -9422.80, -11151.40, 66907.80, 0.000, 0.000, 0.000, 18:58:36.597
69, 16798.41, -9420.86, -8956.50, -15396.80, -9281.05, -9369.56, -10985.21, 66915.00, 0.000, 0.000, 0.000, 18:58:36.628
70, 17184.56, -8665.73, -8904.04, -15475.27, -9200.13, -9382.05, -10198.45, 66981.05, 0.000, 0.000, 0.000, 18:58:36.628
71, 17318.85, -8776.70, -8989.51, -15517.47, -9137.42, -9435.43, -9750.23, 67017.32, 0.000, 0.000, 0.000, 18:58:36.629
72, 17029.35, -9555.15, -9103.06, -15471.90, -9177.27, -9455.66, -10119.42, 66977.29, 0.000, 0.000, 0.000, 18:58:36.629
73, 16707.10, -9867.09, -9091.08, -15397.76, -9275.06, -9411.56, -10697.41, 66916.59, 0.000, 0.000, 0.000, 18:58:36.629
74, 16821.99, -9415.54, -8960.86, -15400.22, -9271.88, -9362.92, -10530.60, 66924.83, 0.000, 0.000, 0.000, 18:58:36.630
75, 17206.15, -8659.00, -8904.40, -15476.15, -9183.37, -9382.12, -9806.49, 66991.39, 0.000, 0.000, 0.000, 18:58:36.630
76, 17367.51, -8731.73, -8974.02, -15501.81, -9127.71, -9437.22, -9809.60, 67026.95, -0.090, 0.972, 0.150, 18:58:36.630
77, 17075.30, -9526.18, -9092.56, -15450.89, -9151.36, -9478.46, -10433.82, 66986.92, 0.000, 0.000, 0.000, 18:58:36.631
78, 16723.40, -9897.40, -9097.83, -15389.47, -9260.73, -9463.93, -11038.83, 66923.84, 0.000, 0.000, 0.000, 18:58:36.631
79, 16825.57, -9464.73, -8975.50, -15399.43, -9266.76, -9430.42, -10887.76, 66930.53, 0.000, 0.000, 0.000, 18:58:36.631
80, 17193.43, -8708.33, -8921.90, -15472.28, -9157.29, -9451.77, -10122.59, 66997.27, 0.000, 0.000, 0.000, 18:58:36.632
81, 17315.72, -8807.75, -9002.83, -15504.82, -9150.92, -9509.39, -9689.57, 67031.52, 0.000, 0.000, 0.000, 18:58:36.632
82, 17016.31, -9590.95, -9110.55, -15448.43, -9168.26, -9530.31, -10073.86, 66993.34, 0.000, 0.000, 0.000, 18:58:36.632
83, 16674.83, -9909.56, -9095.71, -15375.56, -9252.59, -9494.73, -10676.85, 66932.32, 0.000, 0.000, 0.000, 18:58:36.632
84, 16775.34, -9476.71, -8965.75, -15383.32, -9271.77, -9448.24, -10523.74, 66941.53, 0.000, 0.000, 0.000, 18:58:36.633
85, 17130.26, -8707.26, -8914.93, -15460.37, -9161.40, -9460.49, -9814.11, 67006.30, 0.000, 0.000, 0.000, 18:58:36.633
86, 17287.89, -8745.03, -8978.05, -15485.11, -9133.06, -9493.95, -9819.48, 67041.13, -0.094, 0.972, 0.148, 18:58:36.633
87, 17008.29, -9527.59, -9086.41, -15431.46, -9166.03, -9509.50, -10456.53, 67000.91, 0.000, 0.000, 0.000, 18:58:36.633
88, 16680.06, -9868.32, -9074.38, -15363.54, -9274.01, -9467.55, -11050.41, 66937.64, 0.000, 0.000, 0.000, 18:58:36.633
89, 16797.47, -9423.43, -8951.61, -15380.59, -9276.24, -9422.13, -10887.40, 66945.51, 0.000, 0.000, 0.000, 18:58:36.633
90, 17173.54, -8675.32, -8903.26, -15457.37, -9161.96, -9440.13, -10116.49, 67011.63, 0.000, 0.000, 0.000, 18:58:36.634
91, 17299.67, -8789.20, -8985.94, -15496.60, -9140.39, -9489.70, -9682.13, 67044.84, 0.000, 0.000, 0.000, 18:58:36.634
92, 17004.20, -9572.22, -9102.77, -15452.23, -9163.97, -9509.71, -10065.64, 67005.86, 0.000, 0.000, 0.000, 18:58:36.634
93, 16667.31, -9886.00, -9098.21, -15392.46, -9263.70, -9469.50, -10662.21, 66945.10, 0.000, 0.000, 0.000, 18:58:36.634
94, 16775.16, -9443.90, -8982.14, -15414.37, -9278.32, -9421.13, -10504.18, 66952.44, 0.000, 0.000, 0.000, 18:58:36.634
95, 17161.20, -8680.41, -8926.28, -15488.89, -9159.34, -9432.26, -9796.30, 67017.86, 0.000, 0.000, 0.000, 18:58:36.634
96, 17326.20, -8748.34, -8995.37, -15515.17, -9129.53, -9477.07, -9817.87, 67053.20, -0.098, 0.966, 0.152, 18:58:36.634
97, 17032.41, -9530.67, -9123.42, -15473.40, -9154.13, -9520.14, -10431.38, 67013.08, 0.000, 0.000, 0.000, 18:58:36.634
98, 16676.55, -9875.25, -9131.22, -15410.95, -9228.74, -9504.74, -11045.34, 66951.77, 0.000, 0.000, 0.000, 18:58:36.634
99, 16759.36, -9462.05, -9020.81, -15421.72, -9224.81, -9483.38, -10913.15, 66958.76, 0.000, 0.000, 0.000, 18:58:36.634
100, 17106.88, -8715.50, -8978.72, -15493.38, -9160.84, -9517.08, -10172.82, 67024.14, 0.000, 0.000, 0.000, 18:58:36.635
101, 17228.46, -8803.70, -9065.29, -15526.82, -9186.03, -9577.66, -9746.39, 67060.91, 0.000, 0.000, 0.000, 18:58:36.635
102, 16926.75, -9589.59, -9183.33, -15471.05, -9192.29, -9609.39, -10135.24, 67018.71, 0.000, 0.000, 0.000, 18:58:36.635
103, 16576.61, -9922.86, -9175.44, -15394.88, -9220.68, -9576.40, -10753.80, 66955.90, 0.000, 0.000, 0.000, 18:58:36.635
104, 16669.33, -9505.35, -9044.50, -15397.87, -9243.16, -9530.94, -10619.85, 66966.25, 0.000, 0.000, 0.000, 18:58:36.635
105, 17041.93, -8728.96, -8986.56, -15467.54, -9154.33, -9546.30, -9892.86, 67033.35, -0.092, 0.968, 0.148, 18:58:36.635
106, 17214.91, -8752.54, -9042.53, -15486.72, -9158.27, -9578.01, -9811.05, 67068.24, 0.000, 0.000, 0.000, 18:58:36.636
107, 16938.38, -9534.23, -9147.12, -15430.55, -9172.13, -9588.14, -10430.87, 67028.07, 0.000, 0.000, 0.000, 18:58:36.636
108, 16602.96, -9885.33, -9138.00, -15359.09, -9253.11, -9540.31, -11036.96, 66966.98, 0.000, 0.000, 0.000, 18:58:36.636
109, 16712.76, -9445.87, -9008.22, -15369.55, -9277.02, -9488.18, -10879.06, 66974.01, 0.000, 0.000, 0.000, 18:58:36.636
110, 17087.82, -8694.67, -8954.98, -15447.27, -9176.04, -9501.55, -10106.52, 67040.63, 0.000, 0.000, 0.000, 18:58:36.636
111, 17235.68, -8784.57, -9030.82, -15478.05, -9154.47, -9545.27, -9793.84, 67075.75, 0.000, 0.000, 0.000, 18:58:36.636
112, 16951.83, -9556.80, -9147.70, -15436.27, -9171.61, -9568.80, -10412.94, 67033.37, 0.000, 0.000, 0.000, 18:58:36.636
113, 16613.04, -9884.03, -9144.25, -15370.98, -9262.25, -9534.83, -11029.71, 66971.95, 0.000, 0.000, 0.000, 18:58:36.636
114, 16725.16, -9440.62, -9023.20, -15380.57, -9263.75, -9495.89, -10866.19, 66982.16, 0.000, 0.000, 0.000, 18:58:36.637
115, 17096.92, -8695.07, -8980.01, -15462.04, -9163.34, -9515.07, -10097.94, 67049.11, -0.088, 0.970, 0.152, 18:58:36.637
116, 17244.24, -8784.46, -9053.13, -15492.93, -9162.76, -9556.35, -9810.31, 67084.71, 0.000, 0.000, 0.000, 18:58:36.637
117, 16965.44, -9551.53, -9154.63, -15434.68, -9171.57, -9567.24, -10433.84, 67045.46, 0.000, 0.000, 0.000, 18:58:36.637
118, 16631.57, -9877.66, -9140.95, -15362.40, -9257.24, -9528.26, -11044.64, 66981.56, 0.000, 0.000, 0.000, 18:58:36.637
119, 16742.53, -9436.19, -9014.95, -15375.32, -9265.58, -9495.22, -10884.34, 66989.65, 0.000, 0.000, 0.000, 18:58:36.637
120, 17115.09, -8687.79, -8958.58, -15450.93, -9161.06, -9524.35, -10112.31, 67058.49, 0.000, 0.000, 0.000, 18:58:36.637
121, 17255.57, -8782.38, -9033.81, -15484.30, -9164.48, -9588.94, -9771.82, 67095.30, 0.000, 0.000, 0.000, 18:58:37.043
122, 16974.16, -9560.76, -9151.38, -15437.32, -9176.33, -9623.97, -10381.63, 67056.20, 0.000, 0.000, 0.000, 18:58:37.043
123, 16623.84, -9917.60, -9155.99, -15377.26, -9226.22, -9605.66, -11017.93, 66994.95, 0.000, 0.000, 0.000, 18:58:37.044
124, 16711.55, -9497.50, -9036.34, -15392.53, -9229.33, -9578.04, -10876.78, 67002.84, 0.000, 0.000, 0.000, 18:58:37.044
125, 17066.52, -8741.54, -8985.54, -15468.79, -9170.27, -9608.77, -10125.14, 67069.67, -0.092, 0.972, 0.152, 18:58:37.044
126, 17207.76, -8810.25, -9055.03, -15494.70, -9195.35, -9655.71, -9743.84, 67103.42, 0.000, 0.000, 0.000, 18:58:37.045
127, 16931.29, -9578.06, -9158.72, -15436.94, -9198.21, -9671.42, -10347.87, 67065.55, 0.000, 0.000, 0.000, 18:58:37.045
128, 16589.53, -9912.35, -9149.31, -15361.53, -9237.98, -9627.81, -11000.25, 67004.80, 0.000, 0.000, 0.000, 18:58:37.045
129, 16690.96, -9481.21, -9011.26, -15367.85, -9237.80, -9581.21, -10851.30, 67012.83, 0.000, 0.000, 0.000, 18:58:37.045
130, 17058.92, -8728.13, -8947.43, -15440.41, -9156.08, -9598.17, -10093.20, 67081.85, 0.000, 0.000, 0.000, 18:58:37.045
131, 17212.38, -8800.91, -9014.30, -15466.65, -9170.54, -9634.70, -9814.67, 67116.27, 0.000, 0.000, 0.000, 18:58:37.046
132, 16934.44, -9572.07, -9124.34, -15414.68, -9183.15, -9651.86, -10434.33, 67075.34, 0.000, 0.000, 0.000, 18:58:37.046
133, 16594.92, -9905.56, -9116.20, -15346.13, -9251.72, -9611.07, -11053.38, 67015.09, 0.000, 0.000, 0.000, 18:58:37.046
134, 16702.52, -9470.10, -8984.84, -15364.05, -9256.10, -9566.59, -10897.62, 67022.69, 0.000, 0.000, 0.000, 18:58:37.046
135, 17074.70, -8712.73, -8925.36, -15444.65, -9163.01, -9582.71, -10131.11, 67089.61, -0.096, 0.970, 0.156, 18:58:37.046
136, 17223.22, -8791.77, -8999.06, -15476.37, -9169.51, -9622.27, -9775.58, 67126.22, 0.000, 0.000, 0.000, 18:58:37.047
137, 16945.59, -9563.55, -9122.77, -15434.66, -9182.74, -9643.59, -10395.71, 67086.30, 0.000, 0.000, 0.000, 18:58:37.047
138, 16607.88, -9895.30, -9125.23, -15367.41, -9251.74, -9606.13, -11032.46, 67024.07, 0.000, 0.000, 0.000, 18:58:37.047
139, 16718.19, -9453.16, -8996.62, -15378.65, -9270.12, -9557.18, -10870.35, 67033.57, 0.000, 0.000, 0.000, 18:58:37.047
140, 17092.58, -8699.39, -8938.35, -15455.92, -9175.95, -9573.12, -10097.87, 67102.86, 0.000, 0.000, 0.000, 18:58:37.047
141, 17238.96, -8786.69, -9014.03, -15491.08, -9170.74, -9616.44, -9828.64, 67138.07, 0.000, 0.000, 0.000, 18:58:37.048
142, 16949.75, -9561.00, -9131.49, -15441.28, -9179.50, -9637.65, -10443.61, 67097.90, 0.000, 0.000, 0.000, 18:58:37.048
143, 16609.74, -9889.71, -9129.61, -15370.76, -9259.14, -9609.51, -11052.60, 67035.70, 0.000, 0.000, 0.000, 18:58:37.048
144, 16724.20, -9439.16, -8990.05, -15366.47, -9270.99, -9568.96, -10882.50, 67044.70, 0.000, 0.000, 0.000, 18:58:37.049
145, 17086.14, -8691.18, -8931.24, -15438.48, -9166.43, -9601.86, -10111.71, 67112.25, -0.096, 0.970, 0.156, 18:58:37.049
146, 17214.33, -8782.27, -9000.15, -15464.03, -9173.98, -9655.35, -9793.17, 67149.58, 0.000, 0.000, 0.000, 18:58:37.049
147, 16922.01, -9557.65, -9111.91, -15406.92, -9181.13, -9675.87, -10411.20, 67109.26, 0.000, 0.000, 0.000, 18:58:37.049
148, 16558.75, -9910.14, -9110.03, -15337.48, -9248.95, -9648.80, -11038.77, 67047.97, 0.000, 0.000, 0.000, 18:58:37.049
149, 16634.14, -9480.78, -8977.94, -15344.74, -9249.33, -9616.75, -10889.64, 67055.34, 0.000, 0.000, 0.000, 18:58:37.049
150, 16984.15, -8725.92, -8918.28, -15418.17, -9170.45, -9639.86, -10130.50, 67123.16, 0.000, 0.000, 0.000, 18:58:37.049
151, 17130.62, -8796.62, -8990.85, -15453.19, -9182.63, -9685.39, -9763.55, 67157.94, 0.000, 0.000, 0.000, 18:58:37.049
152, 16852.61, -9568.33, -9106.57, -15405.25, -9189.18, -9704.79, -10361.42, 67120.03, 0.000, 0.000, 0.000, 18:58:37.049
153, 16507.08, -9914.41, -9106.68, -15336.85, -9256.17, -9665.70, -10995.92, 67057.66, 0.000, 0.000, 0.000, 18:58:37.050
154, 16608.66, -9468.06, -8969.29, -15343.00, -9281.34, -9620.28, -10834.61, 67066.63, -0.094, 0.976, 0.154, 18:58:37.050
155, 16994.46, -8701.38, -8901.45, -15417.50, -9184.33, -9636.17, -10058.37, 67136.77, 0.000, 0.000, 0.000, 18:58:37.050
156, 17158.72, -8772.75, -8975.32, -15451.07, -9173.69, -9679.22, -9838.30, 67173.98, 0.000, 0.000, 0.000, 18:58:37.050
157, 16878.65, -9554.36, -9106.03, -15404.71, -9187.26, -9701.10, -10458.98, 67132.75, 0.000, 0.000, 0.000, 18:58:37.051
158, 16546.19, -9899.99, -9110.06, -15337.48, -9258.58, -9671.04, -11067.76, 67071.50, 0.000, 0.000, 0.000, 18:58:37.051
159, 16658.06, -9453.29, -8986.41, -15355.11, -9269.29, -9639.84, -10904.50, 67079.69, 0.000, 0.000, 0.000, 18:58:37.051
160, 17034.44, -8692.79, -8931.02, -15432.09, -9187.30, -9661.79, -10125.76, 67148.52, 0.000, 0.000, 0.000, 18:58:37.052
161, 17174.14, -8777.69, -9008.16, -15465.17, -9185.78, -9705.91, -9806.74, 67186.39, 0.000, 0.000, 0.000, 18:58:37.052
162, 16891.93, -9552.33, -9126.71, -15415.71, -9188.51, -9719.23, -10434.24, 67144.77, 0.000, 0.000, 0.000, 18:58:37.052
163, 16561.70, -9894.22, -9128.47, -15354.13, -9253.49, -9681.75, -11059.24, 67080.06, 0.000, 0.000, 0.000, 18:58:37.052
164, 16680.84, -9439.34, -8994.41, -15365.68, -9270.59, -9640.13, -10892.09, 67091.09, -0.096, 0.972, 0.156, 18:58:37.052
165, 17063.46, -8689.44, -8933.81, -15444.54, -9180.89, -9662.95, -10115.50, 67163.01, 0.000, 0.000, 0.000, 18:58:37.053
166, 17214.35, -8784.03, -9009.56, -15471.07, -9172.75, -9708.39, -9804.19, 67195.89, 0.000, 0.000, 0.000, 18:58:37.053
167, 16929.17, -9557.14, -9134.42, -15426.35, -9187.06, -9731.88, -10426.31, 67154.56, 0.000, 0.000, 0.000, 18:58:37.054
168, 16594.36, -9890.87, -9131.85, -15356.41, -9271.21, -9691.49, -11038.68, 67095.42, 0.000, 0.000, 0.000, 18:58:37.054
169, 16716.60, -9424.19, -8988.62, -15356.05, -9293.59, -9644.13, -10860.31, 67106.15, 0.000, 0.000, 0.000, 18:58:37.054
170, 17102.95, -8676.92, -8921.45, -15429.54, -9184.91, -9667.00, -10075.43, 67173.12, 0.000, 0.000, 0.000, 18:58:37.054
171, 17250.32, -8777.06, -8994.14, -15459.70, -9159.07, -9711.21, -9836.29, 67209.41, 0.000, 0.000, 0.000, 18:58:37.055
172, 16970.14, -9544.57, -9118.06, -15409.61, -9171.84, -9731.32, -10468.57, 67169.74, 0.000, 0.000, 0.000, 18:58:37.055
173, 16634.01, -9882.15, -9130.69, -15348.41, -9272.84, -9707.74, -11077.03, 67108.18, 0.000, 0.000, 0.000, 18:58:37.055
174, 16755.40, -9417.26, -8991.12, -15352.74, -9286.90, -9665.48, -10899.81, 67116.88, -0.092, 0.972, 0.148, 18:58:37.055
175, 17134.58, -8660.41, -8921.01, -15425.09, -9175.10, -9684.70, -10112.40, 67183.28, 0.000, 0.000, 0.000, 18:58:37.056
176, 17276.20, -8748.56, -8993.76, -15458.00, -9160.50, -9728.46, -9793.19, 67218.73, 0.000, 0.000, 0.000, 18:58:37.056
177, 17003.40, -9519.18, -9113.32, -15406.43, -9179.68, -9745.99, -10403.64, 67180.42, 0.000, 0.000, 0.000, 18:58:37.056
178, 16678.18, -9861.34, -9111.08, -15336.18, -9278.25, -9710.25, -11006.98, 67119.38, 0.000, 0.000, 0.000, 18:58:37.057
179, 16797.69, -9391.84, -8976.55, -15348.88, -9286.37, -9671.40, -10824.70, 67128.19, 0.000, 0.000, 0.000, 18:58:37.057
180, 17185.14, -8636.51, -8911.51, -15426.59, -9171.88, -9687.09, -10037.16, 67197.03, 0.000, 0.000, 0.000, 18:58:37.058
181, 17342.32, -8724.29, -8982.65, -15457.93, -9151.52, -9727.64, -9839.37, 67233.51, 0.000, 0.000, 0.000, 18:58:37.058
182, 17064.86, -9508.70, -9105.81, -15407.75, -9168.80, -9744.76, -10447.25, 67193.81, 0.000, 0.000, 0.000, 18:58:37.058
183, 16731.04, -9870.96, -9108.80, -15344.63, -9265.42, -9708.64, -11035.55, 67132.79, 0.000, 0.000, 0.000, 18:58:37.058
184, 16848.48, -9396.54, -8974.31, -15358.55, -9272.35, -9668.81, -10847.57, 67141.27, -0.094, 0.974, 0.148, 18:58:37.059
185, 17227.14, -8638.66, -8905.36, -15433.92, -9163.16, -9687.40, -10054.91, 67209.88, 0.000, 0.000, 0.000, 18:58:37.059
186, 17376.22, -8725.47, -8977.67, -15465.66, -9143.76, -9726.34, -9826.99, 67248.41, 0.000, 0.000, 0.000, 18:58:37.059
187, 17092.76, -9508.14, -9110.03, -15423.17, -9161.91, -9749.81, -10438.35, 67209.46, 0.000, 0.000, 0.000, 18:58:37.060
188, 16748.52, -9872.81, -9118.64, -15356.90, -9253.78, -9721.73, -11031.81, 67147.90, 0.000, 0.000, 0.000, 18:58:37.060
189, 16846.93, -9410.89, -8984.48, -15369.57, -9260.10, -9686.60, -10854.39, 67160.46, 0.000, 0.000, 0.000, 18:58:37.060
190, 17212.70, -8655.36, -8921.90, -15447.65, -9158.60, -9713.87, -10073.73, 67228.70, 0.000, 0.000, 0.000, 18:58:37.060
191, 17360.33, -8737.50, -8993.87, -15469.24, -9169.18, -9760.65, -9813.62, 67263.73, 0.000, 0.000, 0.000, 18:58:37.060
192, 17085.81, -9509.28, -9118.53, -15416.65, -9176.42, -9775.58, -10430.58, 67223.52, 0.000, 0.000, 0.000, 18:58:37.061
193, 16746.44, -9855.35, -9123.02, -15354.78, -9250.87, -9743.48, -11027.93, 67164.89, 0.000, 0.000, 0.000, 18:58:37.061
194, 16855.76, -9389.27, -8981.58, -15363.78, -9253.62, -9705.10, -10849.78, 67172.89, -0.090, 0.976, 0.144, 18:58:37.061
195, 17223.74, -8646.10, -8912.71, -15439.91, -9154.83, -9727.86, -10067.92, 67243.86, 0.000, 0.000, 0.000, 18:58:37.062
196, 17362.79, -8747.56, -8983.30, -15470.00, -9158.45, -9772.43, -9811.88, 67281.43, 0.000, 0.000, 0.000, 18:58:37.062
197, 17078.03, -9526.00, -9107.55, -15418.28, -9167.68, -9786.33, -10432.03, 67241.13, 0.000, 0.000, 0.000, 18:58:37.062
198, 16735.67, -9878.55, -9107.71, -15349.41, -9252.73, -9752.31, -11037.45, 67178.79, 0.000, 0.000, 0.000, 18:58:37.062
199, 16847.20, -9414.87, -8962.56, -15358.31, -9259.63, -9719.23, -10860.58, 67189.48, 0.000, 0.000, 0.000, 18:58:37.062
200, 17211.80, -8659.20, -8894.03, -15436.23, -9161.40, -9751.78, -10081.33, 67258.34, 0.000, 0.000, 0.000, 18:58:37.062
201, 17353.20, -8741.57, -8967.97, -15464.32, -9161.22, -9801.20, -9811.54, 67293.16, 0.000, 0.000, 0.000, 18:58:37.063
202, 17068.80, -9516.41, -9099.48, -15413.56, -9172.33, -9814.67, -10440.43, 67253.87, 0.000, 0.000, 0.000, 18:58:37.063
203, 16728.96, -9865.08, -9102.46, -15343.96, -9247.74, -9778.46, -11045.96, 67194.62, -0.092, 0.974, 0.142, 18:58:37.063
204, 16846.15, -9400.21, -8958.36, -15352.12, -9251.07, -9743.24, -10868.36, 67203.98, 0.000, 0.000, 0.000, 18:58:37.063
205, 17222.62, -8643.67, -8889.78, -15430.44, -9156.10, -9764.63, -10083.74, 67274.23, 0.000, 0.000, 0.000, 18:58:37.063
206, 17368.58, -8730.75, -8966.04, -15463.18, -9158.98, -9804.95, -9797.89, 67308.55, 0.000, 0.000, 0.000, 18:58:37.063
207, 17090.46, -9509.17, -9093.05, -15412.60, -9167.61, -9817.42, -10413.61, 67269.31, 0.000, 0.000, 0.000, 18:58:37.063
208, 16752.81, -9857.92, -9091.04, -15337.01, -9243.43, -9778.35, -11017.08, 67207.52, 0.000, 0.000, 0.000, 18:58:37.063
209, 16871.21, -9386.95, -8942.62, -15343.18, -9259.46, -9741.05, -10832.79, 67215.23, 0.000, 0.000, 0.000, 18:58:37.064
210, 17250.58, -8635.01, -8867.00, -15417.92, -9159.19, -9767.11, -10041.57, 67282.39, 0.000, 0.000, 0.000, 18:58:37.064
211, 17399.27, -8727.93, -8939.60, -15443.94, -9149.93, -9807.52, -9805.80, 67319.67, 0.000, 0.000, 0.000, 18:58:37.064
212, 17117.12, -9507.58, -9076.44, -15398.54, -9163.01, -9828.22, -10430.98, 67281.54, 0.000, 0.000, 0.000, 18:58:37.064
213, 16771.21, -9861.41, -9083.06, -15335.33, -9235.07, -9792.34, -11032.84, 67220.16, -0.090, 0.972, 0.146, 18:58:37.064
214, 16878.12, -9397.46, -8941.28, -15344.56, -9242.83, -9751.89, -10852.60, 67230.27, 0.000, 0.000, 0.000, 18:58:37.064
215, 17247.86, -8649.16, -8867.61, -15414.30, -9150.85, -9766.84, -10065.19, 67303.41, 0.000, 0.000, 0.000, 18:58:37.064
216, 17386.21, -8748.54, -8944.61, -15440.79, -9145.64, -9809.42, -9817.89, 67338.38, 0.000, 0.000, 0.000, 18:58:37.064
217, 17096.83, -9526.38, -9084.08, -15395.25, -9155.97, -9832.22, -10437.91, 67295.42, 0.000, 0.000, 0.000, 18:58:37.065
218, 16750.06, -9864.79, -9097.70, -15337.65, -9217.77, -9807.23, -11043.68, 67234.96, 0.000, 0.000, 0.000, 18:58:37.065
219, 16853.53, -9404.54, -8959.88, -15353.90, -9236.90, -9773.88, -10868.69, 67246.31, 0.000, 0.000, 0.000, 18:58:37.065
220, 17222.64, -8646.64, -8885.71, -15426.30, -9157.44, -9789.10, -10081.26, 67316.34, 0.000, 0.000, 0.000, 18:58:37.065
221, 17361.16, -8733.99, -8961.46, -15456.41, -9150.40, -9830.54, -9798.27, 67352.04, 0.000, 0.000, 0.000, 18:58:37.065
222, 17073.76, -9512.28, -9094.59, -15409.58, -9162.67, -9850.10, -10413.88, 67313.08, 0.000, 0.000, 0.000, 18:58:37.065
223, 16727.33, -9861.19, -9098.17, -15340.49, -9247.39, -9812.21, -11013.29, 67251.62, -0.086, 0.970, 0.144, 18:58:37.065
224, 16846.24, -9387.33, -8955.20, -15351.29, -9270.14, -9773.70, -10823.21, 67261.83, 0.000, 0.000, 0.000, 18:58:37.065
225, 17214.17, -8636.18, -8888.13, -15426.10, -9162.47, -9798.02, -10034.37, 67329.87, 0.000, 0.000, 0.000, 18:58:37.065
226, 17347.17, -8731.91, -8971.12, -15459.34, -9141.68, -9848.89, -9815.19, 67366.97, 0.000, 0.000, 0.000, 18:58:37.066
227, 17061.33, -9511.40, -9104.56, -15410.54, -9159.59, -9870.53, -10430.80, 67327.43, 0.000, 0.000, 0.000, 18:58:37.066
228, 16723.20, -9859.15, -9103.62, -15341.61, -9248.50, -9831.12, -11022.00, 67265.52, 0.000, 0.000, 0.000, 18:58:37.066
229, 16832.72, -9393.48, -8958.33, -15355.18, -9254.16, -9790.22, -10837.38, 67274.81, 0.000, 0.000, 0.000, 18:58:37.066
230, 17214.38, -8627.39, -8879.43, -15423.78, -9145.86, -9801.51, -10043.13, 67343.48, 0.000, 0.000, 0.000, 18:58:37.066
231, 17358.19, -8711.32, -8949.35, -15450.73, -9120.27, -9836.82, -9808.53, 67378.15, 0.000, 0.000, 0.000, 18:58:37.066
232, 17063.39, -9501.37, -9084.73, -15406.77, -9144.23, -9857.61, -10438.98, 67337.49, 0.000, 0.000, 0.000, 18:58:37.066
233, 16717.74, -9855.00, -9089.20, -15341.28, -9241.98, -9825.76, -11037.89, 67275.51, -0.084, 0.968, 0.140, 18:58:37.066
234, 16829.83, -9384.83, -8949.91, -15352.36, -9258.41, -9787.07, -10847.86, 67288.72, 0.000, 0.000, 0.000, 18:58:37.067
235, 17205.39, -8634.39, -8883.48, -15426.53, -9149.60, -9806.20, -10051.11, 67359.28, 0.000, 0.000, 0.000, 18:58:37.067
236, 17342.67, -8741.99, -8964.57, -15454.96, -9131.34, -9851.26, -9794.89, 67393.91, 0.000, 0.000, 0.000, 18:58:37.067
237, 17048.68, -9524.03, -9095.28, -15401.58, -9146.33, -9867.76, -10425.59, 67352.02, 0.000, 0.000, 0.000, 18:58:37.067
238, 16704.35, -9862.35, -9093.34, -15330.48, -9233.84, -9828.69, -11026.36, 67290.69, 0.000, 0.000, 0.000, 18:58:37.068
239, 16824.34, -9392.02, -8942.69, -15335.13, -9251.43, -9782.69, -10833.35, 67301.70, 0.000, 0.000, 0.000, 18:58:37.068
240, 17199.51, -8631.42, -8869.10, -15413.45, -9144.93, -9801.33, -10041.45, 67369.74, 0.000, 0.000, 0.000, 18:58:37.068
241, 17337.53, -8721.47, -8950.38, -15445.08, -9126.89, -9846.03, -9792.21, 67404.92, 0.000, 0.000, 0.000, 18:58:37.543
242, 17046.69, -9502.75, -9083.99, -15396.46, -9144.10, -9865.23, -10409.01, 67365.72, 0.000, 0.000, 0.000, 18:58:37.544
243, 16704.58, -9838.68, -9086.74, -15331.15, -9235.29, -9830.10, -11002.87, 67308.09, -0.078, 0.966, 0.142, 18:58:37.544
244, 16824.58, -9367.59, -8940.12, -15334.95, -9245.11, -9784.27, -10810.09, 67318.13, 0.000, 0.000, 0.000, 18:58:37.544
245, 17199.94, -8621.58, -8870.60, -15410.90, -9139.49, -9801.75, -10019.50, 67388.63, 0.000, 0.000, 0.000, 18:58:37.545
246, 17339.32, -8724.94, -8948.48, -15442.24, -9129.35, -9840.47, -9798.02, 67423.01, 0.000, 0.000, 0.000, 18:58:37.545
247, 17047.81, -9505.77, -9084.04, -15394.50, -9145.01, -9854.79, -10414.50, 67379.76, 0.000, 0.000, 0.000, 18:58:37.545
248, 16707.44, -9838.97, -9082.16, -15320.31, -9232.92, -9807.65, -11004.61, 67322.42, 0.000, 0.000, 0.000, 18:58:37.545
249, 16830.10, -9365.09, -8937.03, -15331.89, -9241.57, -9761.92, -10807.07, 67334.60, 0.000, 0.000, 0.000, 18:58:37.545
250, 17199.42, -8620.49, -8873.24, -15414.23, -9130.82, -9783.87, -10018.10, 67400.74, 0.000, 0.000, 0.000, 18:58:37.545
251, 17335.10, -8722.75, -8950.82, -15445.97, -9122.31, -9824.11, -9795.74, 67438.54, 0.000, 0.000, 0.000, 18:58:37.545
252, 17045.33, -9506.02, -9087.57, -15401.09, -9137.21, -9841.23, -10415.09, 67399.25, -0.088, 0.970, 0.142, 18:58:37.546
253, 16704.93, -9848.85, -9094.50, -15336.74, -9226.40, -9810.27, -11013.35, 67337.49, 0.000, 0.000, 0.000, 18:58:37.546
254, 16820.25, -9386.41, -8951.69, -15348.03, -9240.03, -9769.28, -10827.68, 67346.67, 0.000, 0.000, 0.000, 18:58:37.546
255, 17188.78, -8635.69, -8886.00, -15434.35, -9136.66, -9790.89, -10040.34, 67416.63, 0.000, 0.000, 0.000, 18:58:37.546
0, 17320.43, -8737.59, -8964.88, -15463.74, -9126.04, -9834.50, -9789.55, 67450.61, 0.000, 0.000, 0.000, 18:58:37.546
1, 17030.49, -9523.72, -9093.16, -15409.94, -9137.77, -9849.90, -10420.96, 67410.98, 0.000, 0.000, 0.000, 18:58:37.546
2, 16688.88, -9866.26, -9095.53, -15344.63, -9219.58, -9814.58, -11025.53, 67349.80, 0.000, 0.000, 0.000, 18:58:37.546
3, 16801.56, -9409.66, -8961.69, -15362.17, -9223.54, -9780.05, -10842.85, 67360.24, 0.000, 0.000, 0.000, 18:58:37.547
4, 17169.25, -8649.23, -8902.23, -15443.74, -9136.16, -9803.23, -10057.61, 67431.39, 0.000, 0.000, 0.000, 18:58:37.547
5, 17303.02, -8739.31, -8985.24, -15478.31, -9135.72, -9847.73, -9773.23, 67467.45, 0.000, 0.000, 0.000, 18:58:37.547
6, 17011.76, -9528.33, -9120.43, -15432.05, -9143.96, -9869.03, -10410.44, 67428.05, -0.094, 0.968, 0.144, 18:58:37.547
7, 16669.60, -9876.18, -9123.94, -15364.90, -9210.35, -9838.50, -11026.09, 67365.88, 0.000, 0.000, 0.000, 18:58:37.547
8, 16797.85, -9417.57, -8975.72, -15367.65, -9228.39, -9797.19, -10840.19, 67377.07, 0.000, 0.000, 0.000, 18:58:37.547
9, 17172.84, -8657.19, -8908.60, -15441.17, -9130.51, -9820.44, -10055.25, 67446.86, 0.000, 0.000, 0.000, 18:58:37.548
10, 17299.78, -8755.18, -8993.02, -15473.93, -9139.27, -9870.11, -9761.43, 67481.77, 0.000, 0.000, 0.000, 18:58:37.548
11, 17002.03, -9538.74, -9125.52, -15418.95, -9150.67, -9881.91, -10388.06, 67442.12, 0.000, 0.000, 0.000, 18:58:37.548
12, 16661.82, -9863.96, -9120.61, -15340.69, -9230.53, -9834.95, -10997.06, 67381.92, 0.000, 0.000, 0.000, 18:58:37.548
13, 16773.22, -9408.00, -8973.80, -15348.00, -9230.47, -9792.30, -10815.50, 67390.20, 0.000, 0.000, 0.000, 18:58:37.548
14, 17135.99, -8654.71, -8906.75, -15425.16, -9125.30, -9813.78, -10039.00, 67458.32, 0.000, 0.000, 0.000, 18:58:37.548
15, 17259.21, -8754.13, -8983.21, -15454.24, -9122.91, -9852.09, -9774.31, 67492.34, 0.000, 0.000, 0.000, 18:58:37.549
16, 16959.83, -9536.30, -9110.10, -15396.40, -9141.21, -9860.99, -10405.68, 67449.56, -0.088, 0.966, 0.146, 18:58:37.549
17, 16619.71, -9859.13, -9105.41, -15327.44, -9237.93, -9819.59, -11009.11, 67388.80, 0.000, 0.000, 0.000, 18:58:37.549
18, 16733.28, -9395.15, -8958.71, -15342.44, -9244.93, -9778.04, -10823.07, 67400.37, 0.000, 0.000, 0.000, 18:58:37.549
19, 17100.69, -8650.26, -8890.61, -15422.41, -9135.20, -9802.58, -10042.75, 67467.71, 0.000, 0.000, 0.000, 18:58:37.550
20, 17229.24, -8762.04, -8971.90, -15454.29, -9131.20, -9852.18, -9773.90, 67503.49, 0.000, 0.000, 0.000, 18:58:37.550
21, 16926.46, -9548.11, -9109.95, -15405.36, -9142.22, -9872.18, -10410.68, 67461.02, 0.000, 0.000, 0.000, 18:58:37.550
22, 16580.61, -9883.43, -9115.64, -15340.29, -9215.67, -9835.19, -11027.84, 67399.47, 0.000, 0.000, 0.000, 18:58:37.551
23, 16694.34, -9436.62, -8972.93, -15353.68, -9227.67, -9795.12, -10855.28, 67409.73, 0.000, 0.000, 0.000, 18:58:37.551
24, 17063.25, -8672.97, -8902.66, -15426.68, -9139.72, -9819.95, -10077.60, 67477.66, 0.000, 0.000, 0.000, 18:58:37.551
25, 17191.38, -8761.79, -8984.35, -15459.07, -9135.96, -9869.57, -9740.42, 67509.93, 0.000, 0.000, 0.000, 18:58:37.551
26, 16898.90, -9545.38, -9112.74, -15406.21, -9150.20, -9886.36, -10372.04, 67470.39, -0.088, 0.974, 0.144, 18:58:37.552
27, 16563.18, -9874.80, -9110.39, -15330.37, -9233.71, -9845.05, -10997.80, 67410.91, 0.000, 0.000, 0.000, 18:58:37.552
28, 16676.66, -9419.65, -8965.66, -15343.44, -9235.45, -9805.58, -10815.72, 67418.91, 0.000, 0.000, 0.000, 18:58:37.552
29, 17040.81, -8665.48, -8900.00, -15424.13, -9134.58, -9836.91, -10040.60, 67488.20, 0.000, 0.000, 0.000, 18:58:37.552
30, 17171.75, -8762.44, -8981.09, -15456.41, -9135.40, -9886.98, -9793.46, 67523.57, 0.000, 0.000, 0.000, 18:58:37.552
31, 16871.61, -9549.54, -9116.20, -15405.09, -9146.76, -9907.23, -10447.99, 67481.66, 0.000, 0.000, 0.000, 18:58:37.553
32, 16533.23, -9884.32, -9117.19, -15334.79, -9231.47, -9869.57, -11062.57, 67419.79, 0.000, 0.000, 0.000, 18:58:37.553
33, 16660.74, -9425.31, -8964.75, -15342.37, -9242.45, -9825.47, -10875.40, 67430.34, 0.000, 0.000, 0.000, 18:58:37.553
34, 17041.44, -8667.20, -8885.24, -15414.90, -9144.30, -9843.55, -10090.47, 67497.21, 0.000, 0.000, 0.000, 18:58:37.553
35, 17161.60, -8790.09, -8966.51, -15444.47, -9137.19, -9890.33, -9665.90, 67529.63, 0.000, 0.000, 0.000, 18:58:37.554
36, 16849.06, -9578.86, -9099.60, -15390.38, -9147.14, -9907.03, -10069.57, 67489.05, -0.090, 0.972, 0.148, 18:58:37.555
37, 16510.38, -9881.68, -9092.11, -15316.55, -9228.57, -9859.82, -10664.78, 67428.69, 0.000, 0.000, 0.000, 18:58:37.555
38, 16628.54, -9427.12, -8936.72, -15322.57, -9250.09, -9810.83, -10483.71, 67437.98, 0.000, 0.000, 0.000, 18:58:37.555
39, 17004.27, -8664.34, -8860.25, -15396.10, -9138.00, -9831.21, -9768.79, 67506.52, 0.000, 0.000, 0.000, 18:58:37.555
40, 17155.25, -8746.48, -8935.69, -15430.08, -9119.91, -9877.15, -9805.55, 67540.66, 0.000, 0.000, 0.000, 18:58:37.556
41, 16859.83, -9539.14, -9073.06, -15380.82, -9141.39, -9894.25, -10430.22, 67496.56, 0.000, 0.000, 0.000, 18:58:37.556
42, 16529.29, -9870.13, -9076.19, -15315.46, -9232.48, -9855.42, -11021.49, 67435.32, 0.000, 0.000, 0.000, 18:58:37.556
43, 16653.57, -9415.60, -8934.73, -15329.18, -9242.13, -9818.14, -10836.93, 67445.72, 0.000, 0.000, 0.000, 18:58:37.556
44, 17027.02, -8664.63, -8871.54, -15408.89, -9135.69, -9841.56, -10058.04, 67513.69, 0.000, 0.000, 0.000, 18:58:37.557
45, 17166.09, -8770.31, -8959.72, -15439.85, -9122.39, -9883.76, -9777.30, 67548.29, -0.088, 0.968, 0.144, 18:58:37.557
46, 16869.17, -9556.20, -9104.04, -15395.19, -9141.55, -9904.93, -10406.01, 67505.87, 0.000, 0.000, 0.000, 18:58:37.557
47, 16526.97, -9882.20, -9115.35, -15329.88, -9225.62, -9872.03, -11022.92, 67443.10, 0.000, 0.000, 0.000, 18:58:37.558
48, 16647.71, -9434.36, -8966.94, -15332.54, -9243.38, -9826.61, -10843.26, 67450.48, 0.000, 0.000, 0.000, 18:58:37.558
49, 17022.48, -8670.15, -8898.07, -15406.16, -9139.72, -9851.44, -10060.27, 67517.58, 0.000, 0.000, 0.000, 18:58:37.558
50, 17150.45, -8767.38, -8990.63, -15442.35, -9124.05, -9907.34, -9755.49, 67551.46, 0.000, 0.000, 0.000, 18:58:37.558
51, 16845.44, -9554.95, -9126.37, -15395.99, -9137.15, -9928.69, -10403.64, 67511.12, 0.000, 0.000, 0.000, 18:58:37.558
52, 16502.72, -9877.37, -9118.15, -15324.78, -9229.82, -9889.66, -11028.55, 67450.43, 0.000, 0.000, 0.000, 18:58:37.558
53, 16616.15, -9430.45, -8970.94, -15339.51, -9237.86, -9853.70, -10847.35, 67460.80, 0.000, 0.000, 0.000, 18:58:37.558
54, 16986.32, -8672.88, -8919.24, -15420.13, -9130.73, -9878.82, -10067.49, 67527.75, 0.000, 0.000, 0.000, 18:58:37.559
55, 17116.59, -8773.48, -9006.43, -15447.33, -9117.52, -9919.39, -9751.78, 67560.94, -0.084, 0.964, 0.142, 18:58:37.559
56, 16818.57, -9561.38, -9143.63, -15401.29, -9143.94, -9939.06, -10385.74, 67518.65, 0.000, 0.000, 0.000, 18:58:37.559
57, 16493.31, -9875.02, -9141.01, -15329.90, -9237.48, -9891.83, -11000.03, 67457.80, 0.000, 0.000, 0.000, 18:58:37.560
58, 16632.38, -9411.27, -8983.14, -15336.05, -9247.52, -9841.03, -10804.14, 67467.76, 0.000, 0.000, 0.000, 18:58:37.560
59, 17020.38, -8653.14, -8906.25, -15413.29, -9142.85, -9862.33, -10018.10, 67535.26, 0.000, 0.000, 0.000, 18:58:37.560
60, 17162.41, -8756.65, -8980.24, -15437.72, -9108.38, -9901.71, -9795.05, 67568.90, 0.000, 0.000, 0.000, 18:58:37.560
61, 16858.58, -9545.51, -9113.07, -15386.14, -9140.90, -9916.44, -10425.66, 67526.72, 0.000, 0.000, 0.000, 18:58:37.560
62, 16526.97, -9857.72, -9100.98, -15313.74, -9245.24, -9877.46, -11020.01, 67465.85, 0.000, 0.000, 0.000, 18:58:37.560
63, 16644.03, -9403.47, -8948.95, -15326.97, -9247.99, -9839.21, -10830.89, 67473.86, 0.000, 0.000, 0.000, 18:58:37.561
64, 17014.28, -8649.83, -8876.46, -15408.60, -9142.65, -9862.75, -10045.05, 67541.78, 0.000, 0.000, 0.000, 18:58:37.561
65, 17138.71, -8760.23, -8956.75, -15440.18, -9108.16, -9904.44, -9773.79, 67572.92, -0.080, 0.962, 0.146, 18:58:37.561
66, 16830.64, -9547.57, -9094.23, -15388.86, -9131.47, -9934.14, -10425.10, 67531.39, 0.000, 0.000, 0.000, 18:58:37.561
67, 16484.43, -9873.03, -9104.63, -15325.96, -9226.04, -9922.68, -11045.00, 67470.28, 0.000, 0.000, 0.000, 18:58:37.561
68, 16598.76, -9427.81, -8962.51, -15340.83, -9239.03, -9898.42, -10866.86, 67480.23, 0.000, 0.000, 0.000, 18:58:37.562
69, 16963.92, -8673.84, -8894.74, -15416.00, -9133.97, -9921.65, -10094.20, 67549.07, 0.000, 0.000, 0.000, 18:58:37.562
70, 17076.58, -8793.00, -8984.26, -15446.82, -9125.52, -9966.11, -9676.72, 67581.46, 0.000, 0.000, 0.000, 18:58:37.562
71, 16757.73, -9592.56, -9123.13, -15397.83, -9140.99, -9985.24, -10087.39, 67539.39, 0.000, 0.000, 0.000, 18:58:37.562
72, 16422.63, -9903.97, -9121.77, -15331.13, -9226.87, -9947.67, -10692.02, 67477.03, 0.000, 0.000, 0.000, 18:58:37.563
73, 16549.52, -9457.07, -8969.87, -15340.92, -9247.01, -9901.69, -10511.82, 67487.45, 0.000, 0.000, 0.000, 18:58:37.563
74, 16934.57, -8677.71, -8895.37, -15416.49, -9129.82, -9917.85, -9780.61, 67554.77, 0.000, 0.000, 0.000, 18:58:37.563
75, 17087.75, -8737.50, -8971.23, -15449.08, -9108.36, -9958.66, -9790.44, 67589.30, -0.088, 0.962, 0.148, 18:58:37.563
76, 16790.54, -9539.17, -9108.69, -15399.93, -9138.89, -9975.29, -10437.35, 67546.55, 0.000, 0.000, 0.000, 18:58:37.566
77, 16462.55, -9875.16, -9106.57, -15330.66, -9241.08, -9935.39, -11035.32, 67483.78, 0.000, 0.000, 0.000, 18:58:37.566
78, 16586.20, -9422.02, -8958.51, -15340.83, -9245.37, -9892.14, -10847.35, 67493.48, 0.000, 0.000, 0.000, 18:58:37.566
79, 16961.38, -8673.79, -8884.39, -15418.52, -9138.91, -9915.50, -10062.06, 67562.82, 0.000, 0.000, 0.000, 18:58:37.566
80, 17087.55, -8796.19, -8957.53, -15441.05, -9110.44, -9955.62, -9733.76, 67593.33, 0.000, 0.000, 0.000, 18:58:37.566
81, 16785.36, -9577.88, -9084.58, -15386.92, -9137.88, -9967.36, -10378.58, 67551.26, 0.000, 0.000, 0.000, 18:58:37.567
82, 16456.31, -9880.01, -9077.54, -15319.30, -9238.22, -9925.94, -11002.89, 67488.68, 0.000, 0.000, 0.000, 18:58:37.567
83, 16584.86, -9425.35, -8923.02, -15332.45, -9246.16, -9886.76, -10809.88, 67500.57, 0.000, 0.000, 0.000, 18:58:37.567
84, 16967.83, -8657.30, -8842.95, -15406.03, -9146.20, -9906.40, -10025.20, 67567.51, 0.000, 0.000, 0.000, 18:58:37.567
85, 17110.01, -8749.61, -8912.56, -15428.69, -9100.54, -9940.09, -9806.63, 67600.05, -0.088, 0.968, 0.144, 18:58:37.567
86, 16806.25, -9544.40, -9050.82, -15376.03, -9140.75, -9954.28, -10442.87, 67557.34, 0.000, 0.000, 0.000, 18:58:37.567
87, 16480.52, -9862.30, -9055.27, -15312.22, -9243.56, -9921.31, -11040.00, 67495.85, 0.000, 0.000, 0.000, 18:58:37.567
88, 16605.38, -9410.31, -8908.11, -15328.67, -9244.61, -9886.13, -10847.86, 67504.68, 0.000, 0.000, 0.000, 18:58:37.568
89, 16979.79, -8659.07, -8834.68, -15410.16, -9140.10, -9911.19, -10059.96, 67572.88, 0.000, 0.000, 0.000, 18:58:37.568
90, 17094.81, -8785.84, -8919.35, -15440.16, -9106.70, -9955.53, -9710.85, 67603.95, 0.000, 0.000, 0.000, 18:58:37.568
91, 16785.06, -9569.61, -9057.11, -15390.99, -9133.71, -9970.49, -10345.26, 67563.48, 0.000, 0.000, 0.000, 18:58:37.568
92, 16449.21, -9877.73, -9063.90, -15329.85, -9235.88, -9933.65, -10980.85, 67503.23, 0.000, 0.000, 0.000, 18:58:37.568
93, 16569.71, -9430.07, -8919.60, -15343.67, -9248.64, -9893.82, -10793.75, 67512.30, 0.000, 0.000, 0.000, 18:58:37.568
94, 16942.91, -8671.25, -8855.65, -15417.32, -9142.62, -9917.27, -10016.98, 67579.73, -0.092, 0.968, 0.144, 18:58:37.568
95, 17074.74, -8771.74, -8939.51, -15443.89, -9109.77, -9959.18, -9795.63, 67611.09, 0.000, 0.000, 0.000, 18:58:37.569
96, 16768.46, -9556.44, -9075.86, -15392.13, -9130.60, -9971.43, -10442.33, 67570.02, 0.000, 0.000, 0.000, 18:58:37.569
97, 16437.79, -9860.96, -9072.97, -15319.48, -9228.45, -9922.77, -11046.43, 67506.76, 0.000, 0.000, 0.000, 18:58:37.569
98, 16564.72, -9407.54, -8921.01, -15326.84, -9244.66, -9877.39, -10855.79, 67518.63, 0.000, 0.000, 0.000, 18:58:37.569
99, 16942.46, -8655.29, -8858.08, -15407.73, -9149.17, -9902.31, -10066.40, 67586.11, 0.000, 0.000, 0.000, 18:58:37.569
100, 17059.10, -8790.90, -8957.91, -15444.25, -9116.14, -9957.01, -9645.54, 67615.88, 0.000, 0.000, 0.000, 18:58:37.569
101, 16739.49, -9581.16, -9103.80, -15396.42, -9134.73, -9980.03, -10059.00, 67576.34, 0.000, 0.000, 0.000, 18:58:37.569
102, 16408.46, -9871.96, -9098.52, -15319.64, -9224.10, -9936.94, -10655.57, 67514.18, 0.000, 0.000, 0.000, 18:58:37.569
103, 16542.77, -9414.78, -8939.09, -15320.89, -9241.08, -9886.36, -10463.32, 67525.53, 0.000, 0.000, 0.000, 18:58:37.570
104, 16937.39, -8647.26, -8860.88, -15399.03, -9135.60, -9907.32, -9731.86, 67593.38, -0.092, 0.966, 0.144, 18:58:37.570
105, 17090.90, -8733.47, -8942.78, -15431.11, -9092.58, -9952.76, -9776.29, 67628.06, 0.000, 0.000, 0.000, 18:58:38.007
106, 16775.97, -9542.61, -9101.41, -15387.77, -9132.65, -9974.55, -10434.55, 67587.27, 0.000, 0.000, 0.000, 18:58:38.007
107, 16437.81, -9879.00, -9110.37, -15320.31, -9238.33, -9938.41, -11029.56, 67524.80, 0.000, 0.000, 0.000, 18:58:38.007
108, 16558.08, -9426.83, -8972.42, -15332.47, -9238.51, -9902.63, -10837.71, 67534.92, 0.000, 0.000, 0.000, 18:58:38.007
109, 16922.01, -8670.67, -8914.46, -15417.14, -9134.62, -9928.78, -10056.70, 67603.99, 0.000, 0.000, 0.000, 18:58:38.007
110, 17039.49, -8784.88, -8999.30, -15444.63, -9106.01, -9968.86, -9716.44, 67635.05, 0.000, 0.000, 0.000, 18:58:38.007
111, 16741.75, -9564.78, -9118.51, -15384.93, -9132.86, -9974.11, -10346.82, 67592.86, 0.000, 0.000, 0.000, 18:58:38.008
112, 16421.78, -9861.17, -9108.87, -15319.91, -9230.85, -9933.72, -10968.25, 67529.40, 0.000, 0.000, 0.000, 18:58:38.008
113, 16549.21, -9405.08, -8962.33, -15336.96, -9232.48, -9895.65, -10774.52, 67539.73, 0.000, 0.000, 0.000, 18:58:38.008
114, 16923.15, -8655.74, -8892.57, -15416.04, -9129.41, -9914.58, -9993.40, 67606.96, -0.086, 0.970, 0.142, 18:58:38.008
115, 17054.29, -8768.48, -8965.46, -15443.36, -9093.92, -9948.38, -9781.55, 67641.59, 0.000, 0.000, 0.000, 18:58:38.008
116, 16747.98, -9562.77, -9096.49, -15391.72, -9134.29, -9965.23, -10417.34, 67599.95, 0.000, 0.000, 0.000, 18:58:38.008
117, 16417.02, -9880.16, -9089.22, -15323.64, -9228.92, -9929.05, -11015.92, 67534.59, 0.000, 0.000, 0.000, 18:58:38.008
118, 16536.96, -9429.60, -8934.55, -15330.75, -9234.71, -9883.02, -10825.15, 67543.91, 0.000, 0.000, 0.000, 18:58:38.008
119, 16900.40, -8671.47, -8857.10, -15407.79, -9134.96, -9900.53, -10041.92, 67611.81, 0.000, 0.000, 0.000, 18:58:38.009
120, 17020.81, -8773.71, -8929.10, -15434.66, -9087.28, -9935.33, -9750.17, 67644.22, 0.000, 0.000, 0.000, 18:58:38.009
121, 16712.49, -9554.97, -9057.62, -15384.24, -9125.57, -9950.86, -10399.28, 67600.97, 0.000, 0.000, 0.000, 18:58:38.009
122, 16381.64, -9858.10, -9050.71, -15315.59, -9233.68, -9915.26, -11013.60, 67539.99, 0.000, 0.000, 0.000, 18:58:38.009
123, 16508.64, -9404.21, -8898.56, -15323.80, -9240.17, -9874.82, -10823.83, 67550.28, 0.000, 0.000, 0.000, 18:58:38.009
124, 16891.37, -8648.09, -8824.74, -15401.92, -9138.53, -9891.52, -10032.94, 67618.63, -0.088, 0.972, 0.140, 18:58:38.009
125, 17020.14, -8767.27, -8903.01, -15438.10, -9091.86, -9938.66, -9759.64, 67650.93, 0.000, 0.000, 0.000, 18:58:38.009
126, 16711.93, -9555.10, -9028.41, -15390.76, -9124.25, -9953.66, -10403.44, 67607.84, 0.000, 0.000, 0.000, 18:58:38.009
127, 16376.18, -9862.15, -9021.59, -15325.61, -9229.79, -9919.30, -11017.51, 67545.05, 0.000, 0.000, 0.000, 18:58:38.010
128, 16495.90, -9408.90, -8874.58, -15341.50, -9234.60, -9884.21, -10827.90, 67556.05, 0.000, 0.000, 0.000, 18:58:38.010
129, 16865.26, -8662.84, -8811.88, -15424.49, -9122.10, -9911.59, -10043.71, 67624.55, 0.000, 0.000, 0.000, 18:58:38.010
130, 16986.52, -8787.95, -8889.40, -15452.41, -9101.41, -9954.28, -9743.66, 67658.70, 0.000, 0.000, 0.000, 18:58:38.010
131, 16674.04, -9576.25, -9013.79, -15403.95, -9125.41, -9970.31, -10384.37, 67616.57, 0.000, 0.000, 0.000, 18:58:38.010
132, 16342.83, -9883.00, -9005.18, -15331.66, -9220.74, -9927.93, -11003.85, 67553.27, 0.000, 0.000, 0.000, 18:58:38.010
133, 16474.67, -9432.50, -8855.56, -15340.47, -9229.57, -9882.26, -10812.68, 67563.35, -0.092, 0.968, 0.142, 18:58:38.010
134, 16840.21, -8668.99, -8788.62, -15416.71, -9125.05, -9899.34, -10034.37, 67632.82, 0.000, 0.000, 0.000, 18:58:38.010
135, 16961.75, -8760.14, -8860.81, -15439.27, -9094.72, -9930.30, -9748.00, 67666.73, 0.000, 0.000, 0.000, 18:58:38.011
136, 16665.55, -9550.30, -8981.96, -15385.29, -9126.89, -9940.85, -10395.95, 67624.62, 0.000, 0.000, 0.000, 18:58:38.011
137, 16352.13, -9861.03, -8971.99, -15313.76, -9229.62, -9896.77, -11001.10, 67562.70, 0.000, 0.000, 0.000, 18:58:38.011
138, 16483.99, -9403.29, -8826.19, -15326.17, -9235.67, -9850.57, -10803.38, 67572.45, 0.000, 0.000, 0.000, 18:58:38.011
139, 16845.06, -8654.26, -8758.02, -15404.87, -9126.37, -9868.47, -10017.81, 67640.84, 0.000, 0.000, 0.000, 18:58:38.011
140, 16955.05, -8773.64, -8831.73, -15436.14, -9090.77, -9907.46, -9774.10, 67673.21, 0.000, 0.000, 0.000, 18:58:38.011
141, 16647.65, -9552.96, -8955.58, -15384.77, -9129.12, -9918.16, -10415.40, 67631.62, 0.000, 0.000, 0.000, 18:58:38.011
142, 16329.47, -9848.71, -8943.09, -15316.24, -9229.77, -9869.75, -11012.32, 67569.09, 0.000, 0.000, 0.000, 18:58:38.012
143, 16458.68, -9385.54, -8793.98, -15326.61, -9232.88, -9824.04, -10810.60, 67579.24, -0.090, 0.970, 0.144, 18:58:38.012
144, 16836.85, -8638.30, -8726.66, -15402.72, -9136.86, -9838.97, -10016.78, 67649.50, 0.000, 0.000, 0.000, 18:58:38.012
145, 16971.50, -8758.53, -8810.52, -15439.38, -9101.34, -9880.75, -9776.76, 67681.15, 0.000, 0.000, 0.000, 18:58:38.012
146, 16670.06, -9545.92, -8945.66, -15390.36, -9121.03, -9893.75, -10425.26, 67640.49, 0.000, 0.000, 0.000, 18:58:38.012
147, 16341.05, -9862.24, -8946.13, -15325.27, -9215.60, -9853.57, -11027.81, 67580.70, 0.000, 0.000, 0.000, 18:58:38.012
148, 16464.12, -9405.12, -8802.59, -15340.96, -9230.33, -9807.97, -10830.65, 67592.68, 0.000, 0.000, 0.000, 18:58:38.012
149, 16838.82, -8649.79, -8731.13, -15412.29, -9128.23, -9820.55, -10036.87, 67660.96, 0.000, 0.000, 0.000, 18:58:38.012
150, 16966.13, -8764.21, -8811.30, -15444.36, -9106.64, -9866.22, -9750.70, 67694.47, 0.000, 0.000, 0.000, 18:58:38.013
151, 16662.08, -9555.68, -8946.40, -15399.48, -9126.44, -9886.94, -10390.83, 67654.03, 0.000, 0.000, 0.000, 18:58:38.013
152, 16330.16, -9873.30, -8945.86, -15335.00, -9214.15, -9848.20, -10998.98, 67593.39, 0.000, 0.000, 0.000, 18:58:38.013
153, 16446.68, -9419.67, -8803.77, -15353.84, -9211.94, -9809.44, -10801.03, 67604.77, -0.088, 0.970, 0.142, 18:58:38.013
154, 16802.57, -8667.78, -8749.25, -15443.51, -9112.83, -9840.40, -10021.34, 67673.77, 0.000, 0.000, 0.000, 18:58:38.014
155, 16924.61, -8770.98, -8823.69, -15472.57, -9124.12, -9882.91, -9754.01, 67707.88, 0.000, 0.000, 0.000, 18:58:38.014
156, 16625.23, -9559.82, -8943.27, -15413.65, -9131.87, -9889.44, -10406.12, 67666.38, 0.000, 0.000, 0.000, 18:58:38.014
157, 16301.10, -9879.07, -8937.30, -15345.01, -9211.33, -9852.00, -11018.25, 67605.38, 0.000, 0.000, 0.000, 18:58:38.014
158, 16443.28, -9416.03, -8783.30, -15348.65, -9229.33, -9804.91, -10812.66, 67617.51, 0.000, 0.000, 0.000, 18:58:38.014
159, 16835.36, -8645.12, -8708.06, -15417.09, -9120.23, -9820.95, -10018.48, 67686.11, 0.000, 0.000, 0.000, 18:58:38.014
160, 16986.39, -8732.02, -8771.20, -15433.19, -9089.09, -9855.51, -9777.59, 67719.03, 0.000, 0.000, 0.000, 18:58:38.014
161, 16694.54, -9526.78, -8896.60, -15383.45, -9122.06, -9870.44, -10424.54, 67674.91, 0.000, 0.000, 0.000, 18:58:38.014
162, 16381.66, -9847.71, -8888.04, -15306.63, -9220.00, -9821.22, -11013.22, 67613.17, 0.000, 0.000, 0.000, 18:58:38.015
163, 16524.89, -9377.03, -8736.31, -15314.16, -9233.62, -9771.00, -10801.41, 67627.91, -0.090, 0.976, 0.146, 18:58:38.015
164, 16919.35, -8621.67, -8663.92, -15389.98, -9136.86, -9787.54, -9997.51, 67696.44, 0.000, 0.000, 0.000, 18:58:38.015
165, 17052.06, -8744.02, -8743.82, -15418.61, -9084.73, -9827.64, -9766.46, 67728.60, 0.000, 0.000, 0.000, 18:58:38.015
166, 16736.74, -9537.42, -8880.95, -15374.24, -9113.52, -9840.82, -10407.73, 67688.21, 0.000, 0.000, 0.000, 18:58:38.015
167, 16396.75, -9851.55, -8882.63, -15309.87, -9215.20, -9806.83, -11003.50, 67627.19, 0.000, 0.000, 0.000, 18:58:38.015
168, 16519.15, -9386.30, -8737.10, -15320.60, -9225.55, -9773.21, -10798.82, 67640.11, 0.000, 0.000, 0.000, 18:58:38.015
169, 16891.08, -8627.46, -8672.52, -15406.10, -9129.35, -9800.03, -10004.80, 67710.36, 0.000, 0.000, 0.000, 18:58:38.015
170, 17016.81, -8734.21, -8758.22, -15444.83, -9096.69, -9845.38, -9765.32, 67744.31, 0.000, 0.000, 0.000, 18:58:38.015
171, 16710.57, -9519.58, -8891.84, -15398.21, -9115.33, -9862.21, -10412.20, 67701.35, 0.000, 0.000, 0.000, 18:58:38.016
172, 16376.65, -9832.62, -8895.57, -15337.86, -9214.30, -9824.98, -11008.35, 67641.47, 0.000, 0.000, 0.000, 18:58:38.016
173, 16499.52, -9368.31, -8758.42, -15353.66, -9220.74, -9782.93, -10803.45, 67651.71, -0.100, 0.978, 0.144, 18:58:38.016
174, 16868.82, -8628.20, -8704.98, -15443.02, -9117.39, -9810.76, -10011.88, 67719.32, 0.000, 0.000, 0.000, 18:58:38.016
175, 16993.05, -8756.23, -8787.12, -15476.19, -9094.05, -9853.07, -9757.41, 67753.99, 0.000, 0.000, 0.000, 18:58:38.016
176, 16679.90, -9536.48, -8924.16, -15432.52, -9117.77, -9872.90, -10397.34, 67713.22, 0.000, 0.000, 0.000, 18:58:38.017
177, 16349.16, -9832.00, -8922.91, -15368.81, -9215.33, -9834.48, -10994.89, 67654.02, 0.000, 0.000, 0.000, 18:58:38.017
178, 16474.11, -9365.54, -8780.10, -15384.15, -9219.92, -9797.04, -10788.70, 67665.61, 0.000, 0.000, 0.000, 18:58:38.017
179, 16847.94, -8621.94, -8713.34, -15462.02, -9111.33, -9823.70, -9996.75, 67733.88, 0.000, 0.000, 0.000, 18:58:38.017
180, 16971.95, -8747.60, -8796.06, -15493.20, -9105.36, -9871.78, -9782.53, 67768.01, 0.000, 0.000, 0.000, 18:58:38.017
181, 16659.78, -9541.38, -8933.30, -15437.43, -9118.48, -9885.68, -10420.36, 67724.46, 0.000, 0.000, 0.000, 18:58:38.017
182, 16328.35, -9859.44, -8930.73, -15360.21, -9195.15, -9846.48, -11019.21, 67663.00, -0.088, 0.978, 0.148, 18:58:38.017
183, 16458.73, -9393.25, -8773.57, -15362.00, -9224.50, -9802.40, -10809.24, 67676.92, 0.000, 0.000, 0.000, 18:58:38.018
184, 16835.67, -8633.45, -8695.19, -15432.81, -9117.72, -9822.63, -10009.78, 67745.32, 0.000, 0.000, 0.000, 18:58:38.018
185, 16961.80, -8742.62, -8772.57, -15461.06, -9090.45, -9869.77, -9755.13, 67776.88, 0.000, 0.000, 0.000, 18:58:38.019
186, 16662.11, -9528.24, -8896.93, -15397.13, -9117.46, -9875.72, -10388.93, 67734.55, 0.000, 0.000, 0.000, 18:58:38.019
187, 16343.84, -9831.93, -8887.10, -15322.03, -9222.17, -9831.44, -10973.39, 67676.09, 0.000, 0.000, 0.000, 18:58:38.019
188, 16472.16, -9362.70, -8746.82, -15338.97, -9217.79, -9795.56, -10761.72, 67686.84, 0.000, 0.000, 0.000, 18:58:38.020
189, 16847.27, -8615.30, -8683.03, -15425.59, -9110.71, -9821.20, -9970.38, 67755.87, 0.000, 0.000, 0.000, 18:58:38.020
190, 16976.66, -8737.43, -8761.44, -15455.45, -9074.18, -9865.32, -9782.26, 67791.43, 0.000, 0.000, 0.000, 18:58:38.020
191, 16663.05, -9531.70, -8901.98, -15407.75, -9101.16, -9885.51, -10415.69, 67746.28, 0.000, 0.000, 0.000, 18:58:38.020
192, 16330.30, -9843.73, -8915.24, -15351.27, -9203.98, -9852.47, -11005.31, 67685.23, -0.102, 0.970, 0.142, 18:58:38.021
193, 16458.19, -9378.55, -8780.48, -15369.19, -9211.51, -9817.06, -10797.70, 67698.89, 0.000, 0.000, 0.000, 18:58:38.021
194, 16830.44, -8623.28, -8717.11, -15442.01, -9108.45, -9838.57, -10004.22, 67768.99, 0.000, 0.000, 0.000, 18:58:38.021
195, 16958.36, -8736.60, -8800.15, -15468.23, -9088.91, -9895.09, -9733.76, 67801.55, 0.000, 0.000, 0.000, 18:58:38.022
196, 16661.41, -9521.98, -8934.04, -15412.33, -9110.10, -9924.35, -10382.92, 67762.38, 0.000, 0.000, 0.000, 18:58:38.022
197, 16342.99, -9829.18, -8931.33, -15338.04, -9200.40, -9887.88, -10980.72, 67701.45, 0.000, 0.000, 0.000, 18:58:38.022
198, 16476.54, -9364.64, -8783.94, -15343.20, -9206.93, -9842.59, -10771.22, 67710.72, 0.000, 0.000, 0.000, 18:58:38.022
199, 16855.61, -8607.63, -8709.47, -15414.90, -9101.38, -9861.52, -9977.82, 67780.52, 0.000, 0.000, 0.000, 18:58:38.022
200, 16989.67, -8714.72, -8788.64, -15443.85, -9076.66, -9910.41, -9767.18, 67816.89, 0.000, 0.000, 0.000, 18:58:38.022
201, 16684.75, -9506.13, -8929.37, -15391.83, -9104.69, -9929.54, -10391.46, 67772.97, 0.000, 0.000, 0.000, 18:58:38.022
202, 16359.17, -9817.47, -8933.90, -15323.66, -9211.44, -9892.95, -10980.07, 67712.15, -0.094, 0.976, 0.142, 18:58:38.023
203, 16491.23, -9349.22, -8792.06, -15336.29, -9217.12, -9856.07, -10769.32, 67723.77, 0.000, 0.000, 0.000, 18:58:38.023
204, 16868.35, -8600.53, -8716.49, -15408.98, -9105.85, -9875.65, -9971.69, 67793.02, 0.000, 0.000, 0.000, 18:58:38.023
205, 16989.16, -8727.82, -8800.33, -15444.21, -9082.72, -9926.12, -9777.37, 67827.57, 0.000, 0.000, 0.000, 18:58:38.023
206, 16674.45, -9522.71, -8944.70, -15402.50, -9103.55, -9950.26, -10426.66, 67784.41, 0.000, 0.000, 0.000, 18:58:38.024
207, 16345.70, -9836.94, -8947.72, -15334.12, -9191.82, -9908.62, -11021.02, 67722.30, 0.000, 0.000, 0.000, 18:58:38.024
208, 16478.15, -9369.05, -8797.67, -15345.52, -9208.38, -9865.52, -10807.07, 67734.95, 0.000, 0.000, 0.000, 18:58:38.024
209, 16849.57, -8615.01, -8728.89, -15424.04, -9100.24, -9892.12, -10009.65, 67806.56, 0.000, 0.000, 0.000, 18:58:38.024
210, 16965.71, -8735.06, -8814.79, -15454.26, -9081.38, -9944.65, -9726.27, 67839.27, 0.000, 0.000, 0.000, 18:58:38.024
211, 16656.05, -9526.18, -8947.58, -15398.72, -9095.68, -9961.97, -10365.67, 67797.87, 0.000, 0.000, 0.000, 18:58:38.024
212, 16325.94, -9840.44, -8947.94, -15330.84, -9191.33, -9924.98, -10964.98, 67740.11, -0.092, 0.970, 0.144, 18:58:38.025
213, 16443.46, -9384.96, -8804.51, -15344.54, -9188.51, -9887.23, -10760.55, 67751.48, 0.000, 0.000, 0.000, 18:58:38.025
214, 16803.48, -8627.35, -8736.63, -15418.95, -9091.50, -9910.36, -9977.55, 67821.96, 0.000, 0.000, 0.000, 18:58:38.025
215, 16935.22, -8724.38, -8814.86, -15447.22, -9085.67, -9956.52, -9763.60, 67854.44, 0.000, 0.000, 0.000, 18:58:38.025
216, 16627.10, -9518.47, -8959.29, -15400.78, -9101.90, -9979.38, -10395.44, 67811.75, 0.000, 0.000, 0.000, 18:58:38.025
217, 16295.81, -9836.09, -8962.45, -15328.31, -9183.39, -9942.10, -10987.96, 67752.20, 0.000, 0.000, 0.000, 18:58:38.025
218, 16423.53, -9374.41, -8810.95, -15335.20, -9193.36, -9902.78, -10779.98, 67764.67, 0.000, 0.000, 0.000, 18:58:38.026
219, 16789.29, -8628.82, -8742.37, -15413.74, -9085.96, -9934.59, -9994.29, 67832.63, 0.000, 0.000, 0.000, 18:58:38.026
220, 16915.13, -8746.77, -8820.71, -15438.48, -9084.35, -9982.00, -9745.72, 67867.74, 0.000, 0.000, 0.000, 18:58:38.026
221, 16613.58, -9530.16, -8956.81, -15385.53, -9101.36, -9998.65, -10387.91, 67826.52, 0.000, 0.000, 0.000, 18:58:38.026
222, 16285.70, -9833.45, -8961.69, -15326.46, -9195.15, -9965.57, -10990.78, 67765.59, -0.096, 0.970, 0.138, 18:58:38.026
223, 16404.97, -9375.60, -8820.83, -15344.49, -9200.67, -9934.77, -10788.85, 67776.95, 0.000, 0.000, 0.000, 18:58:38.026
224, 16768.70, -8629.20, -8752.45, -15422.95, -9086.32, -9964.54, -10001.96, 67845.99, 0.000, 0.000, 0.000, 18:58:38.026
225, 16897.07, -8749.05, -8830.97, -15450.69, -9087.68, -10017.07, -9752.67, 67880.28, 0.000, 0.000, 0.000, 18:58:38.484
226, 16589.35, -9537.04, -8970.56, -15405.60, -9101.43, -10044.38, -10398.41, 67837.32, 0.000, 0.000, 0.000, 18:58:38.484
227, 16251.08, -9848.49, -8981.96, -15346.24, -9174.59, -10015.24, -11009.96, 67776.81, 0.000, 0.000, 0.000, 18:58:38.484
228, 16368.38, -9397.08, -8835.02, -15360.19, -9190.43, -9980.37, -10811.70, 67788.46, 0.000, 0.000, 0.000, 18:58:38.484
229, 16726.66, -8644.96, -8765.21, -15436.65, -9091.10, -10007.05, -10025.96, 67858.82, 0.000, 0.000, 0.000, 18:58:38.484
230, 16836.00, -8764.39, -8855.63, -15474.13, -9096.51, -10057.10, -9696.83, 67891.32, 0.000, 0.000, 0.000, 18:58:38.484
231, 16528.35, -9554.19, -9000.35, -15434.04, -9110.68, -10075.36, -10332.14, 67847.89, -0.092, 0.976, 0.136, 18:58:38.484
232, 16203.90, -9860.96, -8999.42, -15365.01, -9186.54, -10030.70, -10954.72, 67788.39, 0.000, 0.000, 0.000, 18:58:38.484
233, 16333.02, -9406.53, -8847.29, -15377.62, -9198.44, -9998.49, -10749.76, 67800.35, 0.000, 0.000, 0.000, 18:58:38.484
234, 16699.93, -8650.24, -8771.79, -15451.13, -9092.47, -10029.16, -9966.35, 67867.96, 0.000, 0.000, 0.000, 18:58:38.485
235, 16826.37, -8753.61, -8842.44, -15471.54, -9080.04, -10072.14, -9764.94, 67902.01, 0.000, 0.000, 0.000, 18:58:38.485
236, 16522.56, -9539.97, -8971.23, -15412.78, -9112.22, -10082.58, -10423.87, 67859.80, 0.000, 0.000, 0.000, 18:58:38.485
237, 16209.60, -9838.14, -8962.40, -15342.88, -9211.76, -10034.84, -11014.47, 67797.58, 0.000, 0.000, 0.000, 18:58:38.485
238, 16338.86, -9374.99, -8801.04, -15355.42, -9216.72, -9988.41, -10802.53, 67808.66, 0.000, 0.000, 0.000, 18:58:38.485
239, 16722.10, -8614.88, -8711.21, -15423.75, -9113.97, -10009.16, -10001.56, 67879.67, 0.000, 0.000, 0.000, 18:58:38.485
240, 16856.66, -8730.26, -8783.56, -15443.98, -9075.03, -10054.78, -9752.78, 67913.54, 0.000, 0.000, 0.000, 18:58:38.485
241, 16558.11, -9523.81, -8916.80, -15388.77, -9103.35, -10074.02, -10396.51, 67871.09, -0.100, 0.976, 0.136, 18:58:38.485
242, 16243.15, -9836.04, -8918.32, -15323.17, -9204.20, -10043.80, -10993.30, 67809.16, 0.000, 0.000, 0.000, 18:58:38.485
243, 16377.32, -9373.56, -8765.44, -15340.34, -9210.15, -10011.39, -10785.43, 67821.70, 0.000, 0.000, 0.000, 18:58:38.485
244, 16746.15, -8626.79, -8689.55, -15416.31, -9099.86, -10039.29, -9995.21, 67890.49, 0.000, 0.000, 0.000, 18:58:38.486
245, 16868.26, -8754.04, -8770.58, -15443.13, -9077.60, -10088.95, -9743.39, 67923.91, 0.000, 0.000, 0.000, 18:58:38.486
246, 16559.31, -9546.07, -8918.66, -15397.67, -9099.10, -10116.33, -10403.26, 67880.48, 0.000, 0.000, 0.000, 18:58:38.486
247, 16231.68, -9855.55, -8926.97, -15333.09, -9192.40, -10085.93, -11014.45, 67819.93, 0.000, 0.000, 0.000, 18:58:38.486
248, 16364.52, -9397.77, -8768.46, -15339.87, -9206.77, -10044.58, -10809.17, 67831.59, 0.000, 0.000, 0.000, 18:58:38.486
249, 16733.97, -8640.49, -8693.06, -15416.53, -9094.50, -10074.74, -10021.54, 67899.63, 0.000, 0.000, 0.000, 18:58:38.486
250, 16855.79, -8752.81, -8775.21, -15443.74, -9087.66, -10122.37, -9722.00, 67932.25, 0.000, 0.000, 0.000, 18:58:38.486
251, 16545.21, -9545.07, -8925.88, -15400.49, -9104.74, -10142.93, -10365.33, 67888.93, -0.106, 0.976, 0.134, 18:58:38.486
252, 16213.55, -9859.62, -8935.69, -15336.02, -9177.49, -10097.27, -10987.09, 67828.94, 0.000, 0.000, 0.000, 18:58:38.486
253, 16338.30, -9410.80, -8785.06, -15356.85, -9198.68, -10056.14, -10791.71, 67842.52, 0.000, 0.000, 0.000, 18:58:38.486
254, 16709.18, -8654.73, -8707.77, -15432.74, -9090.59, -10074.76, -10002.72, 67910.48, 0.000, 0.000, 0.000, 18:58:38.487
255, 16833.72, -8767.27, -8790.74, -15464.43, -9083.28, -10119.73, -9753.54, 67943.09, 0.000, 0.000, 0.000, 18:58:38.487
0, 16526.70, -9558.30, -8937.23, -15422.17, -9107.46, -10139.24, -10414.01, 67900.66, 0.000, 0.000, 0.000, 18:58:38.487
1, 16208.12, -9859.89, -8937.86, -15354.06, -9204.87, -10093.02, -11018.43, 67839.71, 0.000, 0.000, 0.000, 18:58:38.487
2, 16345.32, -9395.53, -8784.46, -15369.04, -9205.23, -10051.47, -10806.78, 67851.89, 0.000, 0.000, 0.000, 18:58:38.487
3, 16720.74, -8636.31, -8710.09, -15439.69, -9095.19, -10073.86, -10015.84, 67919.28, 0.000, 0.000, 0.000, 18:58:38.487
4, 16843.87, -8752.54, -8788.46, -15458.91, -9075.28, -10110.39, -9719.21, 67952.79, 0.000, 0.000, 0.000, 18:58:38.487
5, 16536.85, -9547.53, -8929.66, -15404.46, -9093.38, -10124.51, -10364.88, 67908.48, -0.102, 0.972, 0.134, 18:58:38.487
6, 16212.03, -9854.17, -8935.76, -15336.36, -9194.75, -10090.05, -10976.36, 67848.41, 0.000, 0.000, 0.000, 18:58:38.487
7, 16343.13, -9390.55, -8775.94, -15344.94, -9210.64, -10055.54, -10765.25, 67861.52, 0.000, 0.000, 0.000, 18:58:38.487
8, 16710.10, -8641.12, -8699.63, -15422.23, -9096.06, -10087.99, -9977.33, 67929.43, 0.000, 0.000, 0.000, 18:58:38.488
9, 16832.43, -8764.72, -8776.97, -15444.59, -9076.01, -10128.11, -9772.38, 67962.33, 0.000, 0.000, 0.000, 18:58:38.488
10, 16521.96, -9545.22, -8921.83, -15389.49, -9104.92, -10141.68, -10418.19, 67918.68, 0.000, 0.000, 0.000, 18:58:38.488
11, 16201.46, -9832.04, -8922.57, -15320.44, -9207.11, -10103.64, -11012.19, 67858.27, 0.000, 0.000, 0.000, 18:58:38.489
12, 16333.40, -9372.47, -8766.76, -15334.64, -9208.76, -10067.81, -10803.98, 67869.15, 0.000, 0.000, 0.000, 18:58:38.489
13, 16702.25, -8629.65, -8694.36, -15413.99, -9101.88, -10100.93, -10016.00, 67937.77, 0.000, 0.000, 0.000, 18:58:38.489
14, 16824.65, -8758.55, -8777.71, -15436.38, -9083.12, -10152.74, -9740.49, 67970.05, 0.000, 0.000, 0.000, 18:58:38.489
15, 16516.82, -9552.69, -8928.20, -15391.52, -9097.65, -10178.92, -10393.67, 67925.90, -0.108, 0.970, 0.132, 18:58:38.490
16, 16185.05, -9866.28, -8937.14, -15326.93, -9181.18, -10139.33, -11010.45, 67864.43, 0.000, 0.000, 0.000, 18:58:38.490
17, 16313.33, -9407.89, -8769.91, -15331.46, -9214.51, -10085.93, -10803.07, 67877.51, 0.000, 0.000, 0.000, 18:58:38.490
18, 16685.46, -8646.08, -8685.87, -15413.20, -9108.94, -10106.97, -10009.22, 67945.45, 0.000, 0.000, 0.000, 18:58:38.490
19, 16807.24, -8758.75, -8769.86, -15443.24, -9074.00, -10149.97, -9739.91, 67979.09, 0.000, 0.000, 0.000, 18:58:38.490
20, 16497.80, -9552.00, -8910.84, -15390.52, -9107.80, -10159.36, -10385.33, 67935.48, 0.000, 0.000, 0.000, 18:58:38.491
21, 16182.82, -9850.17, -8909.14, -15323.17, -9209.86, -10109.18, -10982.55, 67874.49, 0.000, 0.000, 0.000, 18:58:38.491
22, 16320.51, -9381.61, -8754.26, -15339.04, -9213.10, -10061.39, -10766.39, 67886.25, 0.000, 0.000, 0.000, 18:58:38.491
23, 16698.67, -8619.10, -8678.89, -15425.54, -9122.93, -10093.96, -9966.17, 67955.88, 0.000, 0.000, 0.000, 18:58:38.491
24, 16819.04, -8735.78, -8768.34, -15459.74, -9067.50, -10152.25, -9775.13, 67989.63, -0.102, 0.970, 0.134, 18:58:38.491
25, 16499.28, -9542.43, -8919.08, -15411.01, -9103.22, -10187.88, -10434.11, 67946.62, 0.000, 0.000, 0.000, 18:58:38.492
26, 16171.31, -9860.90, -8924.65, -15344.99, -9208.00, -10169.75, -11031.03, 67883.95, 0.000, 0.000, 0.000, 18:58:38.492
27, 16305.31, -9393.28, -8767.00, -15355.51, -9217.86, -10136.34, -10815.03, 67895.70, 0.000, 0.000, 0.000, 18:58:38.492
28, 16683.47, -8622.79, -8678.51, -15427.33, -9118.59, -10162.42, -10012.84, 67966.22, 0.000, 0.000, 0.000, 18:58:38.493
29, 16802.23, -8734.64, -8763.43, -15457.42, -9069.51, -10216.62, -9745.34, 67997.49, 0.000, 0.000, 0.000, 18:58:38.493
30, 16495.30, -9524.73, -8910.01, -15402.21, -9103.57, -10235.89, -10392.98, 67954.09, 0.000, 0.000, 0.000, 18:58:38.493
31, 16190.24, -9815.14, -8906.21, -15330.03, -9204.63, -10187.23, -10984.07, 67893.29, 0.000, 0.000, 0.000, 18:58:38.493
32, 16334.77, -9342.51, -8745.43, -15342.95, -9205.50, -10143.29, -10763.48, 67906.97, 0.000, 0.000, 0.000, 18:58:38.493
33, 16710.01, -8598.74, -8667.47, -15423.06, -9101.43, -10180.19, -9966.89, 67976.77, 0.000, 0.000, 0.000, 18:58:38.494
34, 16827.87, -8736.11, -8748.72, -15447.87, -9063.05, -10234.08, -9761.70, 68010.08, -0.090, 0.974, 0.132, 18:58:38.494
35, 16517.92, -9526.45, -8892.31, -15394.70, -9096.18, -10251.05, -10405.27, 67965.30, 0.000, 0.000, 0.000, 18:58:38.494
36, 16201.04, -9822.00, -8894.88, -15331.71, -9198.23, -10210.63, -10993.93, 67902.56, 0.000, 0.000, 0.000, 18:58:38.494
37, 16335.64, -9351.21, -8734.88, -15342.75, -9208.20, -10166.60, -10775.71, 67916.91, 0.000, 0.000, 0.000, 18:58:38.494
38, 16711.46, -8605.13, -8653.23, -15421.90, -9101.25, -10193.42, -9975.67, 67986.38, 0.000, 0.000, 0.000, 18:58:38.494
39, 16833.95, -8739.51, -8735.75, -15454.33, -9058.31, -10244.27, -9754.26, 68018.23, 0.000, 0.000, 0.000, 18:58:38.494
40, 16523.77, -9528.15, -8877.13, -15404.75, -9089.72, -10258.69, -10403.33, 67976.39, 0.000, 0.000, 0.000, 18:58:38.494
41, 16205.37, -9822.47, -8869.19, -15338.35, -9195.02, -10214.95, -10990.67, 67914.72, 0.000, 0.000, 0.000, 18:58:38.495
42, 16337.40, -9349.31, -8699.43, -15350.86, -9204.65, -10169.33, -10769.76, 67928.96, 0.000, 0.000, 0.000, 18:58:38.495
43, 16717.67, -8595.74, -8607.81, -15428.04, -9110.50, -10192.33, -9964.72, 67997.83, 0.000, 0.000, 0.000, 18:58:38.495
44, 16842.35, -8726.05, -8691.27, -15457.73, -9049.39, -10241.26, -9758.77, 68030.15, -0.088, 0.972, 0.132, 18:58:38.495
45, 16525.78, -9517.08, -8839.56, -15409.00, -9095.17, -10259.23, -10392.69, 67986.05, 0.000, 0.000, 0.000, 18:58:38.495
46, 16205.60, -9807.14, -8838.39, -15341.12, -9196.27, -10213.83, -10973.30, 67924.96, 0.000, 0.000, 0.000, 18:58:38.495
47, 16336.13, -9336.82, -8677.42, -15352.79, -9185.38, -10170.38, -10756.15, 67937.09, 0.000, 0.000, 0.000, 18:58:38.495
48, 16705.11, -8594.63, -8599.88, -15432.40, -9090.23, -10203.71, -9959.60, 68007.15, 0.000, 0.000, 0.000, 18:58:38.495
49, 16824.29, -8730.84, -8688.93, -15460.01, -9056.90, -10258.60, -9741.74, 68041.68, 0.000, 0.000, 0.000, 18:58:38.496
50, 16502.94, -9528.79, -8850.73, -15416.22, -9087.37, -10293.58, -10403.31, 67998.70, 0.000, 0.000, 0.000, 18:58:38.496
51, 16173.88, -9834.79, -8862.27, -15352.50, -9186.61, -10260.01, -11007.61, 67937.14, 0.000, 0.000, 0.000, 18:58:38.496
52, 16306.00, -9368.26, -8694.49, -15361.88, -9203.02, -10213.36, -10792.18, 67949.66, 0.000, 0.000, 0.000, 18:58:38.496
53, 16673.80, -8615.88, -8606.23, -15438.08, -9089.09, -10237.46, -9994.34, 68018.77, 0.000, 0.000, 0.000, 18:58:38.496
54, 16789.24, -8749.57, -8690.51, -15462.53, -9056.12, -10287.01, -9713.38, 68052.30, -0.090, 0.974, 0.142, 18:58:38.497
55, 16480.19, -9531.99, -8838.19, -15403.73, -9083.99, -10301.56, -10374.92, 68009.12, 0.000, 0.000, 0.000, 18:58:38.497
56, 16163.69, -9813.11, -8839.49, -15337.19, -9184.91, -10255.74, -10978.17, 67948.97, 0.000, 0.000, 0.000, 18:58:38.497
57, 16304.73, -9339.83, -8674.38, -15345.39, -9193.92, -10204.62, -10758.70, 67962.04, 0.000, 0.000, 0.000, 18:58:38.497
58, 16678.94, -8596.19, -8594.74, -15425.59, -9091.15, -10231.87, -9962.31, 68031.58, 0.000, 0.000, 0.000, 18:58:38.498
59, 16794.03, -8738.35, -8688.19, -15456.39, -9041.53, -10281.15, -9759.93, 68065.73, 0.000, 0.000, 0.000, 18:58:38.498
60, 16483.61, -9527.79, -8839.89, -15407.48, -9096.18, -10294.99, -10404.69, 68022.86, 0.000, 0.000, 0.000, 18:58:38.498
61, 16177.54, -9812.59, -8837.05, -15334.44, -9186.41, -10239.65, -10982.04, 67961.02, 0.000, 0.000, 0.000, 18:58:38.498
62, 16323.97, -9332.39, -8672.16, -15343.60, -9186.90, -10184.26, -10755.75, 67974.07, 0.000, 0.000, 0.000, 18:58:38.498
63, 16711.13, -8573.55, -8586.89, -15423.33, -9122.44, -10201.92, -9947.73, 68045.10, 0.000, 0.000, 0.000, 18:58:38.498
64, 16840.68, -8696.39, -8680.93, -15457.42, -9038.06, -10248.30, -9750.08, 68077.63, -0.098, 0.972, 0.146, 18:58:38.499
65, 16532.33, -9491.13, -8837.41, -15404.53, -9094.34, -10260.03, -10396.56, 68034.38, 0.000, 0.000, 0.000, 18:58:38.499
66, 16224.37, -9789.82, -8835.96, -15330.86, -9185.76, -10202.72, -10971.11, 67974.36, 0.000, 0.000, 0.000, 18:58:38.499
67, 16362.71, -9313.10, -8676.97, -15339.15, -9175.41, -10151.80, -10748.28, 67986.88, 0.000, 0.000, 0.000, 18:58:38.499
68, 16748.03, -8569.08, -8598.65, -15420.33, -9120.90, -10177.58, -9941.23, 68054.31, 0.000, 0.000, 0.000, 18:58:38.499
69, 16879.21, -8706.70, -8693.98, -15448.90, -9030.17, -10228.47, -9750.10, 68086.97, 0.000, 0.000, 0.000, 18:58:38.499
70, 16564.72, -9498.08, -8855.45, -15398.43, -9074.07, -10245.70, -10393.25, 68042.75, 0.000, 0.000, 0.000, 18:58:38.500
71, 16244.78, -9789.80, -8860.03, -15329.03, -9173.85, -10201.63, -10974.28, 67980.23, 0.000, 0.000, 0.000, 18:58:38.500
72, 16374.19, -9322.42, -8707.77, -15351.42, -9171.39, -10167.79, -10757.56, 67994.07, 0.000, 0.000, 0.000, 18:58:38.500
73, 16738.73, -8585.24, -8638.99, -15441.81, -9077.31, -10211.75, -9960.14, 68064.26, -0.096, 0.968, 0.148, 18:58:38.500
74, 16844.12, -8733.79, -8735.51, -15472.66, -9047.56, -10279.34, -9722.56, 68098.50, 0.000, 0.000, 0.000, 18:58:38.500
75, 16518.79, -9523.00, -8898.65, -15429.12, -9065.55, -10312.22, -10383.75, 68052.48, 0.000, 0.000, 0.000, 18:58:38.501
76, 16182.53, -9819.81, -8913.36, -15364.79, -9159.10, -10277.87, -10993.77, 67993.47, 0.000, 0.000, 0.000, 18:58:38.501
77, 16308.30, -9360.46, -8754.98, -15378.02, -9178.61, -10235.00, -10782.08, 68007.35, 0.000, 0.000, 0.000, 18:58:38.501
78, 16673.48, -8603.81, -8673.17, -15448.03, -9070.61, -10256.79, -9989.13, 68075.50, 0.000, 0.000, 0.000, 18:58:38.501
79, 16788.28, -8724.40, -8754.22, -15468.66, -9043.74, -10300.71, -9680.85, 68108.52, 0.000, 0.000, 0.000, 18:58:38.501
80, 16483.00, -9513.66, -8893.67, -15413.79, -9083.41, -10309.43, -10331.96, 68066.52, 0.000, 0.000, 0.000, 18:58:38.501
81, 16175.80, -9798.89, -8881.00, -15339.71, -9179.48, -10252.86, -10927.52, 68006.05, 0.000, 0.000, 0.000, 18:58:38.502
82, 16314.83, -9323.56, -8713.31, -15351.89, -9178.65, -10203.84, -10703.29, 68018.91, 0.000, 0.000, 0.000, 18:58:38.502
83, 16690.96, -8576.99, -8637.05, -15434.24, -9089.31, -10232.16, -9909.56, 68086.81, -0.098, 0.972, 0.152, 18:58:38.502
84, 16811.62, -8712.87, -8724.98, -15461.95, -9024.63, -10276.06, -9742.72, 68119.24, 0.000, 0.000, 0.000, 18:58:38.502
85, 16497.80, -9503.47, -8870.51, -15404.20, -9085.11, -10285.00, -10375.77, 68076.30, 0.000, 0.000, 0.000, 18:58:38.503
86, 16185.84, -9791.16, -8864.75, -15330.48, -9175.19, -10238.80, -10949.47, 68016.09, 0.000, 0.000, 0.000, 18:58:38.503
87, 16321.71, -9320.59, -8709.89, -15347.27, -9176.87, -10200.87, -10730.42, 68028.96, 0.000, 0.000, 0.000, 18:58:38.503
88, 16705.18, -8570.24, -8633.32, -15427.55, -9095.39, -10229.66, -9930.88, 68098.30, 0.000, 0.000, 0.000, 18:58:38.503
89, 16831.73, -8702.81, -8725.25, -15458.00, -9026.10, -10283.79, -9740.51, 68131.60, 0.000, 0.000, 0.000, 18:58:38.504
90, 16524.13, -9490.97, -8870.16, -15398.50, -9086.43, -10296.08, -10390.59, 68088.26, 0.000, 0.000, 0.000, 18:58:38.964
91, 16212.35, -9777.30, -8868.12, -15332.87, -9183.39, -10250.82, -10966.48, 68027.78, 0.000, 0.000, 0.000, 18:58:38.964
92, 16346.23, -9304.11, -8712.29, -15344.74, -9170.41, -10210.19, -10745.58, 68042.20, 0.000, 0.000, 0.000, 18:58:38.965
93, 16718.34, -8559.13, -8638.48, -15421.47, -9084.13, -10245.37, -9945.27, 68110.63, -0.098, 0.964, 0.148, 18:58:38.965
94, 16828.36, -8702.38, -8738.46, -15454.69, -9030.98, -10314.15, -9722.27, 68143.49, 0.000, 0.000, 0.000, 18:58:38.965
95, 16503.92, -9498.96, -8892.91, -15401.16, -9068.64, -10338.31, -10390.28, 68099.59, 0.000, 0.000, 0.000, 18:58:38.966
96, 16183.20, -9792.66, -8891.95, -15329.38, -9177.20, -10296.62, -10981.72, 68039.58, 0.000, 0.000, 0.000, 18:58:38.966
97, 16318.96, -9322.11, -8735.60, -15347.00, -9172.64, -10264.21, -10762.34, 68051.02, 0.000, 0.000, 0.000, 18:58:38.967
98, 16686.05, -8585.57, -8662.44, -15430.62, -9069.15, -10304.65, -9963.11, 68119.55, 0.000, 0.000, 0.000, 18:58:38.967
99, 16787.28, -8741.63, -8759.25, -15464.77, -9042.93, -10369.11, -9688.63, 68149.57, 0.000, 0.000, 0.000, 18:58:38.967
100, 16472.32, -9525.71, -8905.02, -15413.07, -9066.78, -10383.66, -10350.58, 68107.62, 0.000, 0.000, 0.000, 18:58:38.967
101, 16151.01, -9810.78, -8901.78, -15346.13, -9158.67, -10334.26, -10956.38, 68047.36, 0.000, 0.000, 0.000, 18:58:38.968
102, 16283.27, -9343.12, -8734.21, -15360.70, -9170.99, -10285.69, -10737.02, 68059.14, 0.000, 0.000, 0.000, 18:58:38.968
103, 16651.71, -8592.55, -8652.45, -15441.03, -9068.15, -10308.42, -9941.54, 68129.19, -0.100, 0.964, 0.150, 18:58:38.968
104, 16765.53, -8723.68, -8735.35, -15469.35, -9018.86, -10353.01, -9718.14, 68160.73, 0.000, 0.000, 0.000, 18:58:38.968
105, 16450.50, -9502.75, -8875.45, -15413.29, -9081.76, -10363.07, -10379.46, 68115.55, 0.000, 0.000, 0.000, 18:58:38.968
106, 16141.98, -9770.08, -8865.53, -15336.85, -9163.57, -10311.60, -10956.20, 68055.38, 0.000, 0.000, 0.000, 18:58:38.968
107, 16278.22, -9295.00, -8706.43, -15347.80, -9153.78, -10275.90, -10730.02, 68069.44, 0.000, 0.000, 0.000, 18:58:38.968
108, 16657.48, -8539.75, -8623.97, -15424.00, -9101.05, -10311.78, -9922.54, 68138.13, 0.000, 0.000, 0.000, 18:58:38.969
109, 16774.96, -8674.26, -8716.38, -15455.09, -9015.69, -10371.03, -9723.25, 68170.83, 0.000, 0.000, 0.000, 18:58:38.969
110, 16469.50, -9462.83, -8856.74, -15393.67, -9088.13, -10369.47, -10351.81, 68125.16, 0.000, 0.000, 0.000, 18:58:38.969
111, 16164.42, -9743.59, -8852.23, -15328.96, -9167.10, -10315.20, -10916.82, 68065.59, 0.000, 0.000, 0.000, 18:58:38.969
112, 16294.31, -9271.53, -8699.39, -15350.60, -9152.84, -10284.19, -10694.24, 68078.78, 0.000, 0.000, 0.000, 18:58:38.969
113, 16669.62, -8535.95, -8619.30, -15428.40, -9081.76, -10327.67, -9895.41, 68146.38, -0.096, 0.968, 0.152, 18:58:38.969
114, 16790.16, -8683.70, -8711.30, -15455.09, -9004.06, -10380.89, -9724.66, 68179.28, 0.000, 0.000, 0.000, 18:58:38.970
115, 16461.46, -9484.20, -8870.51, -15406.74, -9047.40, -10404.76, -10366.02, 68136.52, 0.000, 0.000, 0.000, 18:58:38.970
116, 16131.01, -9784.34, -8881.49, -15341.66, -9147.88, -10379.59, -10954.83, 68076.62, 0.000, 0.000, 0.000, 18:58:38.970
117, 16260.94, -9321.39, -8730.50, -15360.14, -9153.35, -10358.16, -10744.26, 68088.91, 0.000, 0.000, 0.000, 18:58:38.970
118, 16626.30, -8576.77, -8658.62, -15440.63, -9052.39, -10406.19, -9955.06, 68155.80, 0.000, 0.000, 0.000, 18:58:38.970
119, 16741.12, -8714.27, -8753.37, -15466.33, -9019.08, -10469.47, -9686.73, 68187.81, 0.000, 0.000, 0.000, 18:58:38.970
120, 16426.05, -9502.02, -8909.41, -15417.92, -9041.24, -10496.42, -10347.81, 68144.23, 0.000, 0.000, 0.000, 18:58:38.970
121, 16105.06, -9790.60, -8916.42, -15351.54, -9144.63, -10458.36, -10955.42, 68083.95, 0.000, 0.000, 0.000, 18:58:38.971
122, 16235.17, -9329.98, -8764.30, -15367.32, -9152.75, -10429.79, -10744.01, 68097.18, -0.106, 0.956, 0.146, 18:58:38.971
123, 16596.86, -8574.91, -8696.95, -15448.47, -9052.28, -10473.56, -9952.49, 68164.62, 0.000, 0.000, 0.000, 18:58:38.971
124, 16703.48, -8701.22, -8795.08, -15479.01, -9026.51, -10532.77, -9650.16, 68195.93, 0.000, 0.000, 0.000, 18:58:38.971
125, 16396.46, -9499.58, -8945.08, -15425.41, -9046.13, -10550.45, -10310.77, 68153.10, 0.000, 0.000, 0.000, 18:58:38.971
126, 16084.05, -9801.78, -8945.55, -15356.77, -9145.19, -10512.79, -10926.16, 68091.15, 0.000, 0.000, 0.000, 18:58:38.971
127, 16223.79, -9331.27, -8781.35, -15365.77, -9163.46, -10476.51, -10705.23, 68103.82, 0.000, 0.000, 0.000, 18:58:38.972
128, 16598.52, -8574.17, -8699.79, -15435.53, -9062.98, -10503.55, -9910.50, 68173.55, 0.000, 0.000, 0.000, 18:58:38.972
129, 16723.26, -8697.33, -8780.46, -15451.09, -9003.91, -10546.31, -9715.61, 68206.34, 0.000, 0.000, 0.000, 18:58:38.972
130, 16417.94, -9488.45, -8920.11, -15389.87, -9067.14, -10548.28, -10351.29, 68162.23, 0.000, 0.000, 0.000, 18:58:38.972
131, 16115.21, -9770.15, -8908.71, -15320.82, -9159.68, -10492.04, -10920.32, 68102.59, 0.000, 0.000, 0.000, 18:58:38.972
132, 16248.62, -9296.81, -8739.71, -15331.75, -9149.73, -10453.06, -10695.22, 68114.44, -0.096, 0.966, 0.150, 18:58:38.973
133, 16624.51, -8546.50, -8651.09, -15403.70, -9082.88, -10483.24, -9895.25, 68181.06, 0.000, 0.000, 0.000, 18:58:38.973
134, 16746.60, -8680.52, -8736.89, -15429.01, -9005.76, -10539.88, -9723.43, 68214.15, 0.000, 0.000, 0.000, 18:58:38.973
135, 16440.09, -9467.28, -8882.49, -15372.14, -9083.23, -10556.93, -10350.13, 68171.73, 0.000, 0.000, 0.000, 18:58:38.973
136, 16133.20, -9748.11, -8884.04, -15308.08, -9161.35, -10516.67, -10913.17, 68108.13, 0.000, 0.000, 0.000, 18:58:38.974
137, 16263.42, -9276.73, -8727.06, -15324.24, -9143.63, -10488.91, -10688.80, 68118.50, 0.000, 0.000, 0.000, 18:58:38.974
138, 16632.47, -8533.65, -8647.96, -15406.43, -9060.59, -10531.63, -9892.41, 68187.64, 0.000, 0.000, 0.000, 18:58:38.974
139, 16746.57, -8672.57, -8738.57, -15437.50, -8992.26, -10589.59, -9697.64, 68221.19, 0.000, 0.000, 0.000, 18:58:38.974
140, 16427.59, -9466.72, -8892.06, -15385.87, -9036.74, -10610.17, -10334.75, 68176.95, 0.000, 0.000, 0.000, 18:58:38.974
141, 16107.52, -9762.28, -8897.04, -15321.92, -9144.48, -10575.33, -10918.54, 68116.34, 0.000, 0.000, 0.000, 18:58:38.974
142, 16234.92, -9298.26, -8740.02, -15337.36, -9138.76, -10545.04, -10702.44, 68128.18, -0.100, 0.968, 0.150, 18:58:38.975
143, 16597.98, -8550.46, -8659.96, -15410.01, -9037.17, -10578.95, -9912.75, 68196.11, 0.000, 0.000, 0.000, 18:58:38.975
144, 16712.58, -8679.00, -8745.92, -15434.13, -8994.59, -10629.04, -9704.17, 68230.30, 0.000, 0.000, 0.000, 18:58:38.975
145, 16399.14, -9475.13, -8895.03, -15376.35, -9042.89, -10639.68, -10364.97, 68186.79, 0.000, 0.000, 0.000, 18:58:38.975
146, 16082.82, -9768.94, -8895.03, -15309.71, -9145.24, -10595.91, -10951.33, 68126.62, 0.000, 0.000, 0.000, 18:58:38.975
147, 16216.17, -9296.67, -8731.37, -15322.77, -9144.54, -10558.14, -10730.25, 68139.31, 0.000, 0.000, 0.000, 18:58:38.975
148, 16594.40, -8544.94, -8645.12, -15399.79, -9070.27, -10591.53, -9921.40, 68209.01, 0.000, 0.000, 0.000, 18:58:38.975
149, 16710.70, -8685.66, -8738.24, -15426.79, -8995.64, -10648.75, -9686.51, 68239.49, 0.000, 0.000, 0.000, 18:58:38.976
150, 16401.44, -9463.26, -8895.59, -15372.77, -9064.62, -10666.65, -10326.75, 68196.49, 0.000, 0.000, 0.000, 18:58:38.976
151, 16091.76, -9734.36, -8901.13, -15309.96, -9145.04, -10625.26, -10906.18, 68136.12, 0.000, 0.000, 0.000, 18:58:38.976
152, 16228.01, -9259.57, -8744.61, -15323.15, -9133.17, -10589.41, -10681.29, 68148.25, -0.098, 0.966, 0.148, 18:58:38.976
153, 16603.23, -8525.42, -8664.68, -15398.59, -9045.82, -10621.15, -9878.82, 68217.55, 0.000, 0.000, 0.000, 18:58:38.976
154, 16717.05, -8682.02, -8756.54, -15421.23, -8972.48, -10673.61, -9695.65, 68248.81, 0.000, 0.000, 0.000, 18:58:38.977
155, 16398.58, -9469.05, -8912.94, -15365.01, -9043.94, -10686.93, -10359.25, 68204.87, 0.000, 0.000, 0.000, 18:58:38.977
156, 16086.57, -9744.06, -8912.56, -15292.21, -9139.54, -10636.84, -10938.25, 68143.90, 0.000, 0.000, 0.000, 18:58:38.977
157, 16221.67, -9271.88, -8745.59, -15303.93, -9127.71, -10604.36, -10713.84, 68155.79, 0.000, 0.000, 0.000, 18:58:38.977
158, 16594.78, -8529.20, -8656.47, -15382.94, -9038.44, -10645.13, -9910.00, 68224.80, 0.000, 0.000, 0.000, 18:58:38.977
159, 16701.80, -8681.37, -8749.66, -15413.02, -8984.82, -10704.41, -9666.32, 68256.95, 0.000, 0.000, 0.000, 18:58:38.978
160, 16377.30, -9472.27, -8911.24, -15367.96, -9020.40, -10718.35, -10334.53, 68211.69, 0.000, 0.000, 0.000, 18:58:38.978
161, 16055.62, -9757.61, -8921.27, -15308.35, -9129.88, -10679.80, -10930.11, 68153.23, 0.000, 0.000, 0.000, 18:58:38.978
162, 16185.81, -9290.52, -8758.78, -15319.21, -9134.20, -10648.62, -10708.54, 68167.50, -0.098, 0.962, 0.144, 18:58:38.978
163, 16543.89, -8545.41, -8678.42, -15394.70, -9029.03, -10689.81, -9914.47, 68235.31, 0.000, 0.000, 0.000, 18:58:38.978
164, 16645.01, -8694.25, -8777.73, -15427.51, -8993.87, -10753.13, -9631.01, 68265.63, 0.000, 0.000, 0.000, 18:58:38.978
165, 16330.99, -9485.07, -8935.36, -15378.83, -9019.76, -10771.62, -10282.63, 68222.46, 0.000, 0.000, 0.000, 18:58:38.979
166, 16018.69, -9769.23, -8935.60, -15308.37, -9117.50, -10730.76, -10884.34, 68163.37, 0.000, 0.000, 0.000, 18:58:38.979
167, 16154.79, -9301.10, -8764.92, -15314.19, -9131.56, -10699.36, -10662.47, 68176.06, 0.000, 0.000, 0.000, 18:58:38.979
168, 16520.78, -8548.65, -8677.93, -15392.48, -9032.25, -10741.55, -9870.78, 68244.21, 0.000, 0.000, 0.000, 18:58:38.979
169, 16637.52, -8678.02, -8767.45, -15422.95, -8979.08, -10797.84, -9697.44, 68276.42, 0.000, 0.000, 0.000, 18:58:38.979
170, 16322.20, -9468.06, -8930.97, -15372.77, -9025.61, -10811.63, -10351.14, 68231.80, 0.000, 0.000, 0.000, 18:58:38.980
171, 16009.15, -9748.76, -8937.25, -15305.45, -9128.32, -10767.19, -10933.27, 68172.88, -0.100, 0.968, 0.136, 18:58:38.980
172, 16143.08, -9279.46, -8771.07, -15320.80, -9131.04, -10731.92, -10709.50, 68186.43, 0.000, 0.000, 0.000, 18:58:38.980
173, 16511.43, -8524.91, -8681.24, -15399.48, -9031.87, -10764.58, -9903.50, 68253.87, 0.000, 0.000, 0.000, 18:58:38.980
174, 16622.84, -8658.91, -8770.29, -15431.04, -8973.73, -10819.00, -9657.27, 68285.67, 0.000, 0.000, 0.000, 18:58:38.980
175, 16313.33, -9455.32, -8920.45, -15374.63, -9029.23, -10820.05, -10319.62, 68241.28, 0.000, 0.000, 0.000, 18:58:38.980
176, 15992.87, -9750.21, -8921.90, -15302.76, -9131.60, -10767.21, -10910.53, 68180.91, 0.000, 0.000, 0.000, 18:58:38.981
177, 16135.61, -9271.93, -8753.21, -15311.35, -9125.75, -10732.37, -10681.92, 68193.09, 0.000, 0.000, 0.000, 18:58:38.981
178, 16515.66, -8523.88, -8660.34, -15380.82, -9036.09, -10764.91, -9877.24, 68262.07, 0.000, 0.000, 0.000, 18:58:38.981
179, 16635.69, -8663.74, -8740.36, -15402.09, -8969.35, -10807.54, -9672.87, 68294.26, 0.000, 0.000, 0.000, 18:58:38.981
180, 16328.15, -9461.81, -8896.69, -15352.32, -9021.86, -10818.74, -10325.63, 68250.83, 0.000, 0.000, 0.000, 18:58:38.982
181, 16027.12, -9751.93, -8903.28, -15288.21, -9120.45, -10774.70, -10903.81, 68190.45, -0.100, 0.968, 0.136, 18:58:38.982
182, 16175.22, -9277.29, -8740.00, -15301.24, -9114.55, -10741.42, -10674.39, 68203.84, 0.000, 0.000, 0.000, 18:58:38.982
183, 16552.72, -8523.28, -8657.32, -15381.69, -9029.25, -10781.81, -9875.11, 68272.02, 0.000, 0.000, 0.000, 18:58:38.983
184, 16668.66, -8653.52, -8747.51, -15409.22, -8970.83, -10838.85, -9674.97, 68305.19, 0.000, 0.000, 0.000, 18:58:38.983
185, 16361.01, -9446.38, -8903.42, -15352.83, -9024.72, -10851.37, -10323.35, 68262.41, 0.000, 0.000, 0.000, 18:58:38.983
186, 16057.16, -9730.97, -8898.52, -15282.18, -9119.87, -10802.46, -10897.32, 68200.91, 0.000, 0.000, 0.000, 18:58:38.984
187, 16190.78, -9256.10, -8734.46, -15301.18, -9115.20, -10768.18, -10670.39, 68214.26, 0.000, 0.000, 0.000, 18:58:38.984
188, 16560.72, -8511.16, -8651.29, -15382.83, -9027.91, -10803.33, -9870.46, 68284.78, 0.000, 0.000, 0.000, 18:58:38.984
189, 16672.88, -8653.14, -8743.42, -15415.28, -8963.76, -10859.17, -9669.83, 68318.62, 0.000, 0.000, 0.000, 18:58:38.985
190, 16356.09, -9449.58, -8904.78, -15370.06, -9019.76, -10877.27, -10320.29, 68275.93, 0.000, 0.000, 0.000, 18:58:38.985
191, 16044.69, -9739.75, -8911.22, -15304.42, -9117.46, -10834.43, -10899.22, 68213.79, -0.106, 0.962, 0.136, 18:58:38.985
192, 16184.70, -9261.58, -8742.35, -15313.27, -9111.38, -10793.92, -10670.88, 68226.38, 0.000, 0.000, 0.000, 18:58:38.985
193, 16566.75, -8507.90, -8650.77, -15389.29, -9045.82, -10831.43, -9864.76, 68296.91, 0.000, 0.000, 0.000, 18:58:38.986
194, 16688.39, -8643.44, -8745.10, -15420.80, -8963.47, -10888.41, -9665.54, 68328.48, 0.000, 0.000, 0.000, 18:58:38.986
195, 16375.02, -9438.90, -8899.46, -15370.87, -9016.13, -10896.43, -10304.24, 68283.37, 0.000, 0.000, 0.000, 18:58:38.986
196, 16066.25, -9724.89, -8899.28, -15302.41, -9103.51, -10845.07, -10877.90, 68221.12, 0.000, 0.000, 0.000, 18:58:38.986
197, 16201.73, -9249.93, -8739.87, -15318.79, -9102.30, -10811.70, -10651.03, 68233.70, 0.000, 0.000, 0.000, 18:58:38.987
198, 16579.05, -8496.30, -8654.19, -15398.34, -9025.10, -10843.59, -9845.56, 68302.66, 0.000, 0.000, 0.000, 18:58:38.987
199, 16697.29, -8630.25, -8741.52, -15422.23, -8950.51, -10887.15, -9672.96, 68335.16, 0.000, 0.000, 0.000, 18:58:38.987
200, 16383.22, -9423.23, -8898.47, -15368.19, -9023.71, -10889.50, -10306.37, 68291.04, 0.000, 0.000, 0.000, 18:58:38.987
201, 16079.71, -9702.29, -8894.29, -15299.43, -9104.56, -10836.66, -10870.35, 68230.04, -0.098, 0.964, 0.142, 18:58:38.987
202, 16217.42, -9222.69, -8727.13, -15311.66, -9089.98, -10806.22, -10635.72, 68242.71, 0.000, 0.000, 0.000, 18:58:38.987
203, 16586.51, -8474.37, -8638.66, -15388.64, -9013.39, -10844.15, -9831.84, 68310.82, 0.000, 0.000, 0.000, 18:58:38.988
204, 16700.24, -8610.05, -8725.92, -15414.83, -8941.50, -10888.12, -9654.17, 68343.77, 0.000, 0.000, 0.000, 18:58:38.988
205, 16382.80, -9416.66, -8883.05, -15359.54, -8996.31, -10893.55, -10304.20, 68301.03, 0.000, 0.000, 0.000, 18:58:38.988
206, 16069.72, -9719.41, -8891.72, -15293.49, -9095.64, -10843.88, -10876.29, 68241.17, 0.000, 0.000, 0.000, 18:58:38.988
207, 16209.08, -9241.06, -8731.51, -15308.31, -9087.53, -10808.81, -10640.59, 68254.23, 0.000, 0.000, 0.000, 18:58:38.988
208, 16580.59, -8493.42, -8650.10, -15390.20, -8998.05, -10856.33, -9839.28, 68323.07, 0.000, 0.000, 0.000, 18:58:38.988
209, 16690.74, -8636.36, -8745.05, -15417.67, -8945.86, -10916.97, -9656.91, 68355.95, 0.000, 0.000, 0.000, 18:58:38.989
210, 16368.65, -9435.74, -8900.44, -15362.26, -8990.52, -10929.98, -10288.49, 68313.14, 0.000, 0.000, 0.000, 18:58:39.442
211, 16054.83, -9723.72, -8899.64, -15288.48, -9095.15, -10881.03, -10859.97, 68254.83, -0.098, 0.964, 0.138, 18:58:39.443
212, 16187.11, -9250.02, -8735.80, -15302.23, -9091.84, -10854.21, -10630.62, 68268.98, 0.000, 0.000, 0.000, 18:58:39.443
213, 16549.30, -8500.79, -8655.40, -15380.77, -8995.48, -10896.94, -9839.66, 68337.62, 0.000, 0.000, 0.000, 18:58:39.443
214, 16667.79, -8625.14, -8734.30, -15399.48, -8942.06, -10938.61, -9647.48, 68366.01, 0.000, 0.000, 0.000, 18:58:39.444
215, 16355.64, -9419.96, -8886.63, -15350.19, -8989.63, -10950.57, -10284.75, 68323.60, 0.000, 0.000, 0.000, 18:58:39.445
216, 16045.51, -9708.66, -8894.00, -15291.86, -9094.03, -10915.34, -10859.19, 68265.09, 0.000, 0.000, 0.000, 18:58:39.445
217, 16180.02, -9233.97, -8732.58, -15310.86, -9084.82, -10889.66, -10630.49, 68275.88, 0.000, 0.000, 0.000, 18:58:39.445
218, 16539.73, -8484.21, -8655.80, -15398.88, -8978.52, -10935.01, -9840.60, 68346.31, 0.000, 0.000, 0.000, 18:58:39.445
219, 16649.93, -8615.37, -8746.89, -15425.85, -8941.75, -10985.12, -9651.68, 68380.00, 0.000, 0.000, 0.000, 18:58:39.445
220, 16334.83, -9411.29, -8901.34, -15369.68, -8999.24, -10985.79, -10292.58, 68333.86, -0.102, 0.964, 0.140, 18:58:39.446
221, 16020.19, -9701.80, -8908.73, -15306.47, -9090.14, -10936.37, -10874.06, 68274.20, 0.000, 0.000, 0.000, 18:58:39.446
222, 16157.20, -9226.20, -8745.34, -15320.60, -9085.04, -10893.68, -10649.20, 68287.95, 0.000, 0.000, 0.000, 18:58:39.446
223, 16537.56, -8477.46, -8659.60, -15404.69, -9007.08, -10922.20, -9842.68, 68356.98, 0.000, 0.000, 0.000, 18:58:39.446
224, 16662.69, -8614.59, -8744.32, -15430.01, -8937.03, -10960.89, -9633.69, 68389.20, 0.000, 0.000, 0.000, 18:58:39.447
225, 16357.18, -9403.89, -8895.08, -15379.81, -9002.63, -10970.75, -10279.54, 68345.35, 0.000, 0.000, 0.000, 18:58:39.447
226, 16055.21, -9685.44, -8892.82, -15309.92, -9075.99, -10922.58, -10853.96, 68282.59, 0.000, 0.000, 0.000, 18:58:39.447
227, 16192.90, -9206.17, -8727.84, -15326.01, -9072.01, -10891.87, -10623.85, 68297.38, 0.000, 0.000, 0.000, 18:58:39.447
228, 16568.77, -8467.53, -8637.25, -15404.64, -9002.21, -10933.11, -9818.74, 68365.80, 0.000, 0.000, 0.000, 18:58:39.448
229, 16687.46, -8622.12, -8724.33, -15429.19, -8919.24, -10985.93, -9643.91, 68396.52, 0.000, 0.000, 0.000, 18:58:39.448
230, 16364.54, -9414.15, -8890.99, -15381.60, -8976.06, -11003.12, -10304.13, 68351.70, -0.100, 0.970, 0.140, 18:58:39.449
231, 16047.32, -9688.01, -8895.79, -15312.42, -9082.09, -10960.00, -10882.88, 68291.93, 0.000, 0.000, 0.000, 18:58:39.449
232, 16185.59, -9210.68, -8734.30, -15324.33, -9075.90, -10932.98, -10650.81, 68305.72, 0.000, 0.000, 0.000, 18:58:39.450
233, 16558.87, -8467.53, -8656.09, -15397.16, -8980.95, -10977.12, -9846.14, 68373.27, 0.000, 0.000, 0.000, 18:58:39.450
234, 16669.04, -8617.25, -8751.87, -15419.46, -8925.14, -11032.26, -9622.45, 68405.57, 0.000, 0.000, 0.000, 18:58:39.451
235, 16355.80, -9412.79, -8906.52, -15365.64, -8982.36, -11040.60, -10268.57, 68361.27, 0.000, 0.000, 0.000, 18:58:39.451
236, 16046.85, -9697.06, -8908.49, -15300.39, -9076.66, -10993.68, -10842.70, 68299.82, 0.000, 0.000, 0.000, 18:58:39.451
237, 16176.87, -9225.39, -8750.39, -15318.70, -9067.07, -10961.94, -10616.07, 68315.60, 0.000, 0.000, 0.000, 18:58:39.451
238, 16539.91, -8487.27, -8671.40, -15404.13, -8981.69, -11003.34, -9819.57, 68385.52, 0.000, 0.000, 0.000, 18:58:39.452
239, 16655.11, -8631.06, -8755.47, -15428.60, -8918.93, -11052.16, -9634.65, 68416.07, 0.000, 0.000, 0.000, 18:58:39.452
240, 16344.40, -9414.60, -8909.83, -15379.43, -8974.20, -11062.77, -10291.57, 68370.92, -0.106, 0.968, 0.144, 18:58:39.456
241, 16041.60, -9684.41, -8908.76, -15312.91, -9069.20, -11016.57, -10865.50, 68309.56, 0.000, 0.000, 0.000, 18:58:39.456
242, 16179.49, -9209.12, -8743.98, -15329.56, -9069.15, -10982.46, -10636.84, 68323.98, 0.000, 0.000, 0.000, 18:58:39.456
243, 16553.81, -8460.74, -8657.55, -15407.41, -8989.94, -11014.87, -9832.40, 68393.97, 0.000, 0.000, 0.000, 18:58:39.456
244, 16671.27, -8601.71, -8743.53, -15434.42, -8914.37, -11059.69, -9636.08, 68425.59, 0.000, 0.000, 0.000, 18:58:39.456
245, 16348.58, -9393.45, -8900.26, -15381.26, -8966.31, -11068.20, -10283.59, 68379.66, 0.000, 0.000, 0.000, 18:58:39.456
246, 16035.83, -9669.63, -8904.67, -15317.69, -9063.90, -11020.84, -10862.50, 68321.10, 0.000, 0.000, 0.000, 18:58:39.457
247, 16175.78, -9191.62, -8739.55, -15331.42, -9060.37, -10984.56, -10633.69, 68334.22, 0.000, 0.000, 0.000, 18:58:39.457
248, 16555.96, -8453.92, -8647.49, -15407.86, -8986.88, -11017.64, -9821.45, 68402.05, 0.000, 0.000, 0.000, 18:58:39.457
249, 16671.36, -8609.04, -8735.04, -15431.33, -8917.43, -11063.69, -9613.46, 68434.53, 0.000, 0.000, 0.000, 18:58:39.457
250, 16357.32, -9388.98, -8891.12, -15377.08, -8989.92, -11070.86, -10259.38, 68390.63, -0.096, 0.966, 0.148, 18:58:39.457
251, 16052.60, -9653.18, -8895.66, -15303.08, -9055.23, -11016.53, -10829.89, 68329.93, 0.000, 0.000, 0.000, 18:58:39.457
252, 16187.89, -9174.63, -8748.41, -15319.68, -9044.39, -10989.66, -10598.84, 68344.08, 0.000, 0.000, 0.000, 18:58:39.458
253, 16561.39, -8437.96, -8679.70, -15402.72, -8990.85, -11039.10, -9795.45, 68413.99, 0.000, 0.000, 0.000, 18:58:39.458
254, 16676.99, -8587.81, -8773.51, -15428.60, -8905.83, -11097.06, -9629.00, 68444.02, 0.000, 0.000, 0.000, 18:58:39.458
255, 16357.83, -9383.62, -8932.45, -15377.87, -8975.95, -11116.13, -10271.79, 68399.66, 0.000, 0.000, 0.000, 18:58:39.458
0, 16048.02, -9669.01, -8937.75, -15312.75, -9060.86, -11083.58, -10842.65, 68339.65, 0.000, 0.000, 0.000, 18:58:39.458
1, 16179.51, -9195.15, -8779.97, -15329.94, -9054.69, -11060.13, -10612.47, 68353.53, 0.000, 0.000, 0.000, 18:58:39.458
2, 16548.25, -8449.99, -8693.51, -15404.46, -8981.31, -11100.12, -9808.88, 68422.91, 0.000, 0.000, 0.000, 18:58:39.458
3, 16660.74, -8595.94, -8777.06, -15423.02, -8903.75, -11147.87, -9615.76, 68451.39, -0.098, 0.968, 0.140, 18:58:39.458
4, 16337.07, -9391.67, -8937.59, -15372.84, -8944.32, -11162.26, -10265.84, 68407.69, 0.000, 0.000, 0.000, 18:58:39.459
5, 16020.79, -9670.44, -8939.16, -15301.89, -9045.44, -11118.52, -10845.60, 68346.73, 0.000, 0.000, 0.000, 18:58:39.459
6, 16144.40, -9204.13, -8775.32, -15317.25, -9042.11, -11094.89, -10621.57, 68359.95, 0.000, 0.000, 0.000, 18:58:39.459
7, 16482.87, -8465.05, -8698.45, -15400.33, -8951.23, -11144.71, -9830.59, 68429.93, 0.000, 0.000, 0.000, 18:58:39.459
8, 16567.60, -8616.78, -8791.54, -15426.73, -8903.01, -11199.81, -9564.24, 68461.78, 0.000, 0.000, 0.000, 18:58:39.459
9, 16246.39, -9407.56, -8936.88, -15368.54, -8947.56, -11207.21, -10231.47, 68417.59, 0.000, 0.000, 0.000, 18:58:39.459
10, 15934.83, -9687.38, -8935.89, -15302.12, -9054.56, -11161.61, -10829.24, 68355.27, 0.000, 0.000, 0.000, 18:58:39.459
11, 16064.09, -9224.97, -8774.18, -15319.08, -9042.76, -11132.24, -10607.96, 68367.39, 0.000, 0.000, 0.000, 18:58:39.459
12, 16416.53, -8473.26, -8700.84, -15401.00, -8941.19, -11173.88, -9818.52, 68436.13, 0.000, 0.000, 0.000, 18:58:39.460
13, 16520.60, -8599.12, -8793.80, -15430.21, -8895.23, -11217.71, -9588.99, 68470.21, -0.096, 0.968, 0.138, 18:58:39.460
14, 16208.86, -9390.57, -8951.23, -15382.07, -8954.02, -11222.43, -10251.49, 68428.59, 0.000, 0.000, 0.000, 18:58:39.460
15, 15904.12, -9671.33, -8953.82, -15319.59, -9049.04, -11173.75, -10839.30, 68367.23, 0.000, 0.000, 0.000, 18:58:39.460
16, 16045.56, -9202.15, -8786.78, -15333.47, -9051.63, -11135.71, -10612.52, 68381.31, 0.000, 0.000, 0.000, 18:58:39.460
17, 16419.39, -8447.13, -8693.84, -15409.11, -8962.96, -11172.54, -9806.18, 68450.56, 0.000, 0.000, 0.000, 18:58:39.460
18, 16532.33, -8586.91, -8785.82, -15440.81, -8913.63, -11236.62, -9600.39, 68482.16, 0.000, 0.000, 0.000, 18:58:39.460
19, 16228.68, -9380.38, -8937.43, -15378.31, -8941.79, -11245.63, -10269.08, 68437.93, 0.000, 0.000, 0.000, 18:58:39.461
20, 15922.58, -9669.63, -8940.90, -15313.29, -9041.15, -11206.72, -10866.72, 68376.66, 0.000, 0.000, 0.000, 18:58:39.461
21, 16065.83, -9205.30, -8780.73, -15330.82, -9041.19, -11186.94, -10643.72, 68388.34, 0.000, 0.000, 0.000, 18:58:39.461
22, 16430.88, -8467.60, -8701.06, -15408.67, -8935.20, -11236.15, -9851.06, 68458.56, 0.000, 0.000, 0.000, 18:58:39.461
23, 16523.21, -8639.46, -8800.62, -15444.00, -8926.33, -11301.11, -9458.61, 68487.89, -0.102, 0.970, 0.140, 18:58:39.461
24, 16203.38, -9425.26, -8947.89, -15387.59, -8958.67, -11307.10, -9894.25, 68444.48, 0.000, 0.000, 0.000, 18:58:39.462
25, 15909.17, -9672.31, -8924.27, -15305.27, -9050.98, -11246.21, -10463.99, 68385.72, 0.000, 0.000, 0.000, 18:58:39.462
26, 16058.07, -9196.58, -8748.07, -15316.73, -9043.31, -11211.50, -10232.32, 68398.64, 0.000, 0.000, 0.000, 18:58:39.462
27, 16436.69, -8451.22, -8656.92, -15396.80, -8940.50, -11250.62, -9512.83, 68466.30, 0.000, 0.000, 0.000, 18:58:39.463
28, 16570.82, -8578.29, -8735.84, -15418.84, -8900.46, -11294.02, -9609.46, 68498.98, 0.000, 0.000, 0.000, 18:58:39.463
29, 16255.08, -9382.14, -8893.22, -15363.20, -8946.08, -11298.74, -10272.01, 68456.38, 0.000, 0.000, 0.000, 18:58:39.464
30, 15951.77, -9674.37, -8887.43, -15291.03, -9047.34, -11244.85, -10846.12, 68394.88, 0.000, 0.000, 0.000, 18:58:39.464
31, 16089.12, -9206.26, -8721.16, -15308.13, -9035.27, -11212.22, -10621.19, 68406.82, 0.000, 0.000, 0.000, 18:58:39.464
32, 16449.61, -8467.15, -8639.53, -15388.75, -8933.92, -11255.38, -9828.69, 68474.86, 0.000, 0.000, 0.000, 18:58:39.464
33, 16554.21, -8616.13, -8725.70, -15416.78, -8902.21, -11307.01, -9560.56, 68506.13, -0.100, 0.968, 0.138, 18:58:39.465
34, 16244.98, -9404.99, -8864.68, -15361.48, -8947.56, -11302.74, -10225.57, 68463.15, 0.000, 0.000, 0.000, 18:58:39.465
35, 15944.37, -9680.96, -8851.13, -15289.75, -9044.77, -11242.75, -10816.10, 68402.10, 0.000, 0.000, 0.000, 18:58:39.465
36, 16085.21, -9212.65, -8681.73, -15305.09, -9038.73, -11200.44, -10587.80, 68415.67, 0.000, 0.000, 0.000, 18:58:39.465
37, 16455.94, -8464.83, -8597.00, -15389.11, -8948.92, -11231.01, -9792.32, 68483.59, 0.000, 0.000, 0.000, 18:58:39.465
38, 16572.46, -8600.01, -8689.02, -15417.94, -8892.75, -11272.03, -9601.12, 68516.84, 0.000, 0.000, 0.000, 18:58:39.465
39, 16257.76, -9393.83, -8848.85, -15370.53, -8932.07, -11269.79, -10249.77, 68472.24, 0.000, 0.000, 0.000, 18:58:39.466
40, 15945.82, -9678.44, -8851.58, -15304.64, -9039.96, -11212.66, -10836.82, 68411.55, 0.000, 0.000, 0.000, 18:58:39.466
41, 16085.23, -9211.62, -8688.10, -15319.86, -9041.26, -11176.36, -10613.41, 68424.12, 0.000, 0.000, 0.000, 18:58:39.466
42, 16453.32, -8465.99, -8606.02, -15397.09, -8941.64, -11215.77, -9813.18, 68494.70, 0.000, 0.000, 0.000, 18:58:39.466
43, 16561.77, -8610.25, -8696.10, -15424.51, -8894.79, -11267.04, -9583.44, 68525.71, -0.100, 0.968, 0.138, 18:58:39.467
44, 16247.86, -9403.40, -8848.00, -15373.40, -8933.68, -11274.47, -10249.08, 68482.21, 0.000, 0.000, 0.000, 18:58:39.467
45, 15934.54, -9689.01, -8850.87, -15310.30, -9035.31, -11231.44, -10843.21, 68420.32, 0.000, 0.000, 0.000, 18:58:39.475
46, 16071.40, -9226.13, -8698.23, -15333.36, -9040.86, -11207.59, -10618.53, 68433.84, 0.000, 0.000, 0.000, 18:58:39.475
47, 16436.78, -8471.80, -8626.23, -15419.98, -8939.89, -11254.71, -9821.07, 68503.67, 0.000, 0.000, 0.000, 18:58:39.475
48, 16544.85, -8603.68, -8719.17, -15446.82, -8893.58, -11307.99, -9566.08, 68534.91, 0.000, 0.000, 0.000, 18:58:39.475
49, 16231.28, -9396.47, -8869.98, -15391.99, -8937.88, -11313.07, -10222.12, 68490.59, 0.000, 0.000, 0.000, 18:58:39.475
50, 15922.62, -9678.71, -8877.55, -15331.60, -9046.47, -11274.38, -10814.33, 68429.51, 0.000, 0.000, 0.000, 18:58:39.475
51, 16065.94, -9209.01, -8717.56, -15346.15, -9038.75, -11249.68, -10587.15, 68441.04, 0.000, 0.000, 0.000, 18:58:39.476
52, 16432.44, -8465.48, -8635.06, -15422.90, -8924.45, -11290.89, -9795.36, 68511.36, -0.096, 0.970, 0.142, 18:58:39.476
53, 16542.14, -8606.56, -8726.66, -15447.58, -8890.36, -11342.06, -9605.57, 68543.97, 0.000, 0.000, 0.000, 18:58:39.476
54, 16227.95, -9397.61, -8888.22, -15395.57, -8935.27, -11348.25, -10265.19, 68499.53, 0.000, 0.000, 0.000, 18:58:39.476
55, 15924.30, -9672.74, -8890.72, -15319.82, -9032.32, -11290.11, -10845.09, 68439.16, 0.000, 0.000, 0.000, 18:58:39.476
56, 16071.02, -9195.28, -8719.01, -15320.26, -9039.69, -11242.95, -10612.27, 68452.62, 0.000, 0.000, 0.000, 18:58:39.477
57, 16463.33, -8440.49, -8621.89, -15388.53, -8975.01, -11265.10, -9797.89, 68520.27, 0.000, 0.000, 0.000, 18:58:39.477
58, 16593.80, -8575.96, -8706.32, -15411.77, -8890.70, -11304.60, -9595.83, 68551.75, 0.000, 0.000, 0.000, 18:58:39.477
59, 16290.98, -9364.31, -8853.57, -15354.44, -8958.71, -11298.78, -10225.23, 68505.45, 0.000, 0.000, 0.000, 18:58:39.477
60, 15989.50, -9644.62, -8848.65, -15282.87, -9023.69, -11236.83, -10789.16, 68445.63, 0.000, 0.000, 0.000, 18:58:39.478
61, 16123.41, -9170.36, -8682.78, -15297.94, -9013.39, -11202.16, -10556.95, 68460.71, 0.000, 0.000, 0.000, 18:58:39.478
62, 16489.02, -8428.42, -8600.82, -15387.70, -8946.82, -11251.91, -9759.38, 68530.06, -0.096, 0.966, 0.144, 18:58:39.478
63, 16604.28, -8570.26, -8691.86, -15411.44, -8872.93, -11302.76, -9590.55, 68562.61, 0.000, 0.000, 0.000, 18:58:39.478
64, 16285.57, -9360.78, -8849.06, -15356.34, -8923.46, -11310.36, -10234.17, 68516.23, 0.000, 0.000, 0.000, 18:58:39.478
65, 15972.24, -9639.73, -8853.46, -15289.46, -9023.67, -11271.54, -10810.55, 68455.43, 0.000, 0.000, 0.000, 18:58:39.478
66, 16105.12, -9170.43, -8689.13, -15299.75, -9025.14, -11246.08, -10582.90, 68468.89, 0.000, 0.000, 0.000, 18:58:39.479
67, 16475.38, -8429.31, -8598.76, -15376.68, -8923.17, -11287.27, -9776.99, 68536.73, 0.000, 0.000, 0.000, 18:58:39.479
68, 16584.35, -8582.49, -8684.79, -15409.02, -8866.31, -11338.95, -9569.36, 68567.28, 0.000, 0.000, 0.000, 18:58:39.479
69, 16261.99, -9377.05, -8844.07, -15363.67, -8911.64, -11351.24, -10237.75, 68522.24, 0.000, 0.000, 0.000, 18:58:39.479
70, 15950.03, -9658.28, -8850.20, -15295.30, -9014.28, -11304.46, -10826.29, 68462.70, 0.000, 0.000, 0.000, 18:58:39.479
71, 16080.38, -9196.71, -8696.64, -15322.25, -9002.92, -11290.63, -10603.09, 68473.88, 0.000, 0.000, 0.000, 18:58:39.480
72, 16427.55, -8450.52, -8627.48, -15413.85, -8905.67, -11345.54, -9811.90, 68542.90, -0.104, 0.960, 0.146, 18:58:39.480
73, 16525.83, -8586.04, -8722.37, -15443.04, -8879.59, -11398.50, -9519.63, 68575.75, 0.000, 0.000, 0.000, 18:58:39.481
74, 16206.04, -9381.05, -8878.60, -15388.44, -8912.11, -11403.12, -10181.60, 68533.66, 0.000, 0.000, 0.000, 18:58:39.926
75, 15889.09, -9664.11, -8879.68, -15320.38, -9013.83, -11350.19, -10784.45, 68472.94, 0.000, 0.000, 0.000, 18:58:39.926
76, 16028.03, -9191.62, -8711.61, -15332.42, -9017.23, -11313.22, -10553.35, 68485.99, 0.000, 0.000, 0.000, 18:58:39.926
77, 16397.98, -8440.44, -8620.11, -15409.56, -8916.25, -11346.17, -9757.07, 68556.09, 0.000, 0.000, 0.000, 18:58:39.927
78, 16510.88, -8575.87, -8702.90, -15439.11, -8865.84, -11391.28, -9589.72, 68588.65, 0.000, 0.000, 0.000, 18:58:39.927
79, 16201.13, -9363.91, -8855.60, -15381.51, -8926.01, -11392.48, -10241.66, 68543.16, 0.000, 0.000, 0.000, 18:58:39.928
80, 15905.30, -9633.07, -8852.03, -15310.07, -9020.92, -11333.88, -10808.12, 68481.23, 0.000, 0.000, 0.000, 18:58:39.928
81, 16049.87, -9156.77, -8680.66, -15320.71, -9011.15, -11296.48, -10572.53, 68492.80, 0.000, 0.000, 0.000, 18:58:39.928
82, 16429.60, -8407.50, -8587.96, -15396.91, -8944.83, -11331.86, -9764.02, 68562.32, -0.098, 0.958, 0.148, 18:58:39.929
83, 16545.50, -8549.97, -8680.99, -15425.99, -8863.16, -11382.45, -9569.12, 68593.79, 0.000, 0.000, 0.000, 18:58:39.929
84, 16238.41, -9344.08, -8834.55, -15364.28, -8923.24, -11379.97, -10205.56, 68550.63, 0.000, 0.000, 0.000, 18:58:39.930
85, 15940.33, -9626.20, -8831.00, -15291.32, -9010.95, -11326.46, -10772.36, 68491.98, 0.000, 0.000, 0.000, 18:58:39.930
86, 16084.96, -9151.27, -8666.40, -15304.62, -9006.12, -11292.30, -10539.12, 68506.77, 0.000, 0.000, 0.000, 18:58:39.931
87, 16472.07, -8399.56, -8574.40, -15379.61, -8941.41, -11320.87, -9733.51, 68574.48, 0.000, 0.000, 0.000, 18:58:39.931
88, 16602.83, -8530.54, -8658.66, -15403.35, -8859.67, -11366.55, -9575.60, 68606.02, 0.000, 0.000, 0.000, 18:58:39.932
89, 16293.26, -9328.97, -8818.43, -15352.12, -8928.29, -11380.43, -10217.74, 68561.70, 0.000, 0.000, 0.000, 18:58:39.933
90, 15987.29, -9616.30, -8822.50, -15283.36, -9011.17, -11334.68, -10784.18, 68500.79, 0.000, 0.000, 0.000, 18:58:39.933
91, 16119.70, -9143.36, -8657.21, -15290.51, -8996.29, -11315.97, -10553.29, 68512.95, 0.000, 0.000, 0.000, 18:58:39.933
92, 16484.34, -8401.37, -8572.85, -15371.99, -8918.59, -11374.67, -9748.31, 68582.23, -0.100, 0.968, 0.150, 18:58:39.933
93, 16582.83, -8552.94, -8678.31, -15404.31, -8853.44, -11444.29, -9566.90, 68617.15, 0.000, 0.000, 0.000, 18:58:39.933
94, 16252.20, -9348.04, -8850.67, -15355.63, -8891.55, -11463.81, -10235.62, 68572.52, 0.000, 0.000, 0.000, 18:58:39.933
95, 15928.21, -9633.31, -8860.12, -15298.99, -8996.80, -11424.74, -10821.75, 68511.23, 0.000, 0.000, 0.000, 18:58:39.933
96, 16057.56, -9164.68, -8689.44, -15321.09, -8995.59, -11399.34, -10590.79, 68523.12, 0.000, 0.000, 0.000, 18:58:39.933
97, 16417.45, -8416.64, -8602.72, -15406.52, -8904.08, -11444.85, -9784.39, 68592.31, 0.000, 0.000, 0.000, 18:58:39.933
98, 16515.08, -8560.76, -8691.79, -15437.86, -8845.23, -11498.27, -9515.92, 68626.09, 0.000, 0.000, 0.000, 18:58:39.934
99, 16200.95, -9347.75, -8842.44, -15383.45, -8911.62, -11502.03, -10171.67, 68580.63, 0.000, 0.000, 0.000, 18:58:39.934
100, 15903.74, -9614.65, -8836.61, -15306.92, -8997.29, -11449.66, -10749.96, 68520.41, 0.000, 0.000, 0.000, 18:58:39.934
101, 16045.09, -9136.97, -8666.93, -15312.98, -8984.86, -11425.92, -10512.96, 68534.49, -0.100, 0.974, 0.144, 18:58:39.934
102, 16420.04, -8385.73, -8575.67, -15389.26, -8930.80, -11464.37, -9707.05, 68604.14, 0.000, 0.000, 0.000, 18:58:39.934
103, 16536.02, -8520.71, -8667.18, -15416.69, -8852.05, -11509.07, -9561.23, 68636.57, 0.000, 0.000, 0.000, 18:58:39.934
104, 16221.02, -9316.14, -8828.58, -15362.26, -8915.64, -11507.55, -10191.52, 68591.66, 0.000, 0.000, 0.000, 18:58:39.934
105, 15919.34, -9598.71, -8830.32, -15288.55, -8994.07, -11451.07, -10751.66, 68532.70, 0.000, 0.000, 0.000, 18:58:39.935
106, 16059.04, -9123.45, -8664.77, -15298.52, -8986.50, -11413.99, -10517.37, 68545.58, 0.000, 0.000, 0.000, 18:58:39.935
107, 16434.41, -8374.86, -8575.04, -15374.11, -8918.95, -11451.38, -9710.18, 68615.85, 0.000, 0.000, 0.000, 18:58:39.935
108, 16545.92, -8515.37, -8671.29, -15405.09, -8833.70, -11501.65, -9544.15, 68647.66, 0.000, 0.000, 0.000, 18:58:39.935
109, 16222.74, -9316.94, -8833.59, -15352.43, -8880.68, -11507.44, -10187.19, 68603.60, 0.000, 0.000, 0.000, 18:58:39.936
110, 15906.91, -9611.21, -8837.86, -15285.49, -8982.52, -11464.19, -10764.24, 68542.38, 0.000, 0.000, 0.000, 18:58:39.936
111, 16042.90, -9137.33, -8665.75, -15297.40, -8981.13, -11435.71, -10533.08, 68556.91, -0.108, 0.964, 0.146, 18:58:39.936
112, 16411.83, -8397.04, -8564.45, -15373.73, -8888.82, -11475.43, -9732.33, 68627.19, 0.000, 0.000, 0.000, 18:58:39.936
113, 16519.30, -8550.15, -8644.69, -15405.76, -8833.01, -11531.09, -9540.80, 68659.15, 0.000, 0.000, 0.000, 18:58:39.936
114, 16191.78, -9336.23, -8804.35, -15356.63, -8877.69, -11541.39, -10193.60, 68614.51, 0.000, 0.000, 0.000, 18:58:39.936
115, 15876.35, -9605.93, -8805.58, -15294.54, -8989.47, -11500.02, -10778.37, 68554.72, 0.000, 0.000, 0.000, 18:58:39.936
116, 16007.22, -9141.71, -8639.51, -15316.93, -8981.36, -11483.28, -10555.16, 68566.27, 0.000, 0.000, 0.000, 18:58:39.936
117, 16366.24, -8401.75, -8560.74, -15397.67, -8874.85, -11532.70, -9758.84, 68636.73, 0.000, 0.000, 0.000, 18:58:39.936
118, 16470.53, -8548.16, -8649.10, -15426.82, -8834.26, -11580.80, -9518.60, 68669.52, 0.000, 0.000, 0.000, 18:58:39.937
119, 16149.92, -9345.96, -8812.44, -15386.36, -8867.36, -11593.31, -10194.05, 68625.46, 0.000, 0.000, 0.000, 18:58:39.937
120, 15832.59, -9634.85, -8813.78, -15320.31, -8970.81, -11547.94, -10791.31, 68563.33, 0.000, 0.000, 0.000, 18:58:39.937
121, 15969.38, -9167.25, -8632.04, -15330.59, -8984.44, -11506.50, -10559.10, 68576.06, -0.102, 0.964, 0.144, 18:58:39.937
122, 16338.32, -8403.67, -8535.24, -15405.51, -8898.43, -11531.91, -9750.52, 68643.10, 0.000, 0.000, 0.000, 18:58:39.937
123, 16445.77, -8530.10, -8625.34, -15429.81, -8830.53, -11574.92, -9515.27, 68676.13, 0.000, 0.000, 0.000, 18:58:39.937
124, 16137.65, -9313.30, -8775.09, -15369.10, -8912.85, -11569.58, -10167.94, 68632.99, 0.000, 0.000, 0.000, 18:58:39.937
125, 15842.78, -9578.75, -8767.29, -15295.23, -8978.92, -11507.82, -10736.59, 68573.54, 0.000, 0.000, 0.000, 18:58:39.938
126, 15986.88, -9103.17, -8595.94, -15305.07, -8959.61, -11467.65, -10498.41, 68587.47, 0.000, 0.000, 0.000, 18:58:39.938
127, 16360.60, -8362.10, -8510.65, -15388.95, -8897.00, -11507.57, -9698.89, 68654.95, 0.000, 0.000, 0.000, 18:58:39.938
128, 16480.23, -8504.84, -8595.27, -15407.06, -8836.23, -11544.59, -9540.55, 68684.78, 0.000, 0.000, 0.000, 18:58:39.938
129, 16173.19, -9301.48, -8745.81, -15340.99, -8907.15, -11537.54, -10164.43, 68639.23, 0.000, 0.000, 0.000, 18:58:39.938
130, 15872.71, -9585.46, -8746.21, -15269.97, -8974.92, -11487.05, -10725.48, 68577.83, 0.000, 0.000, 0.000, 18:58:39.938
131, 16010.87, -9111.82, -8582.09, -15280.68, -8958.62, -11456.41, -10491.35, 68591.13, -0.100, 0.966, 0.146, 18:58:39.938
132, 16389.71, -8363.62, -8492.23, -15356.45, -8900.00, -11493.98, -9689.32, 68660.42, 0.000, 0.000, 0.000, 18:58:39.938
133, 16508.30, -8506.45, -8586.69, -15383.12, -8823.44, -11543.89, -9553.07, 68694.13, 0.000, 0.000, 0.000, 18:58:39.938
134, 16191.36, -9298.82, -8752.43, -15332.49, -8877.11, -11553.75, -10193.22, 68649.18, 0.000, 0.000, 0.000, 18:58:39.939
135, 15886.97, -9573.52, -8756.81, -15269.59, -8973.87, -11509.43, -10763.35, 68586.86, 0.000, 0.000, 0.000, 18:58:39.939
136, 16022.60, -9107.87, -8601.55, -15291.86, -8960.41, -11489.22, -10535.87, 68600.32, 0.000, 0.000, 0.000, 18:58:39.939
137, 16380.45, -8369.66, -8524.89, -15375.25, -8855.11, -11533.63, -9740.04, 68669.20, 0.000, 0.000, 0.000, 18:58:39.939
138, 16484.14, -8518.16, -8619.48, -15408.04, -8819.06, -11584.84, -9500.72, 68701.44, 0.000, 0.000, 0.000, 18:58:39.939
139, 16161.96, -9315.74, -8779.45, -15360.25, -8849.55, -11589.69, -10174.71, 68657.47, 0.000, 0.000, 0.000, 18:58:39.939
140, 15844.68, -9603.40, -8778.63, -15296.39, -8955.18, -11543.31, -10772.53, 68595.31, 0.000, 0.000, 0.000, 18:58:39.939
141, 15975.46, -9141.37, -8608.53, -15316.22, -8961.91, -11517.38, -10548.46, 68606.73, -0.104, 0.966, 0.148, 18:58:39.940
142, 16329.51, -8393.44, -8524.69, -15403.37, -8852.86, -11562.24, -9752.04, 68677.01, 0.000, 0.000, 0.000, 18:58:39.940
143, 16423.37, -8533.38, -8619.23, -15436.18, -8826.19, -11613.12, -9469.14, 68709.35, 0.000, 0.000, 0.000, 18:58:39.940
144, 16107.83, -9328.46, -8773.82, -15382.51, -8845.34, -11611.60, -10123.15, 68663.84, 0.000, 0.000, 0.000, 18:58:39.940
145, 15789.27, -9623.34, -8785.26, -15323.33, -8947.40, -11568.97, -10731.18, 68604.43, 0.000, 0.000, 0.000, 18:58:39.940
146, 15925.80, -9159.21, -8609.49, -15334.84, -8966.16, -11529.61, -10502.06, 68619.74, 0.000, 0.000, 0.000, 18:58:39.941
147, 16287.80, -8399.63, -8519.79, -15415.75, -8873.67, -11560.81, -9704.93, 68691.34, 0.000, 0.000, 0.000, 18:58:39.941
148, 16401.89, -8521.13, -8609.38, -15440.96, -8818.86, -11604.44, -9523.43, 68722.58, 0.000, 0.000, 0.000, 18:58:39.941
149, 16092.29, -9316.09, -8764.90, -15383.77, -8869.53, -11602.63, -10161.13, 68676.83, 0.000, 0.000, 0.000, 18:58:39.941
150, 15797.68, -9588.99, -8754.11, -15309.71, -8963.50, -11536.72, -10730.42, 68618.02, -0.100, 0.964, 0.146, 18:58:39.941
151, 15943.28, -9114.82, -8581.08, -15322.43, -8954.04, -11497.09, -10491.51, 68631.30, 0.000, 0.000, 0.000, 18:58:39.942
152, 16313.22, -8363.15, -8499.74, -15404.98, -8867.96, -11537.54, -9691.76, 68698.17, 0.000, 0.000, 0.000, 18:58:39.942
153, 16431.57, -8499.16, -8594.71, -15427.58, -8812.78, -11579.37, -9532.06, 68730.34, 0.000, 0.000, 0.000, 18:58:39.942
154, 16120.37, -9294.91, -8755.83, -15364.66, -8849.14, -11579.70, -10181.51, 68686.64, 0.000, 0.000, 0.000, 18:58:39.942
155, 15816.50, -9577.07, -8761.91, -15298.54, -8953.37, -11536.00, -10758.36, 68626.31, 0.000, 0.000, 0.000, 18:58:39.942
156, 15956.42, -9109.68, -8600.03, -15316.51, -8950.69, -11510.75, -10528.59, 68640.17, 0.000, 0.000, 0.000, 18:58:39.942
157, 16316.04, -8373.23, -8517.42, -15395.84, -8845.08, -11552.25, -9733.87, 68708.66, 0.000, 0.000, 0.000, 18:58:39.943
158, 16418.45, -8529.09, -8610.09, -15421.90, -8813.49, -11602.81, -9481.77, 68736.17, 0.000, 0.000, 0.000, 18:58:39.943
159, 16101.37, -9317.08, -8775.79, -15367.81, -8837.90, -11614.90, -10141.68, 68691.20, 0.000, 0.000, 0.000, 18:58:39.943
160, 15785.34, -9594.20, -8780.26, -15299.75, -8941.90, -11568.35, -10740.17, 68630.70, -0.098, 0.968, 0.148, 18:58:39.943
161, 15920.23, -9130.71, -8609.40, -15314.99, -8950.29, -11541.95, -10512.94, 68647.10, 0.000, 0.000, 0.000, 18:58:39.944
162, 16273.34, -8383.96, -8529.85, -15395.41, -8846.31, -11589.25, -9722.52, 68715.67, 0.000, 0.000, 0.000, 18:58:39.944
163, 16374.64, -8517.71, -8619.70, -15422.88, -8815.71, -11634.73, -9502.22, 68746.43, 0.000, 0.000, 0.000, 18:58:39.944
164, 16058.54, -9315.45, -8776.55, -15368.37, -8850.06, -11629.72, -10158.53, 68702.35, 0.000, 0.000, 0.000, 18:58:39.945
165, 15748.57, -9602.40, -8775.92, -15301.53, -8947.56, -11573.49, -10748.75, 68640.22, 0.000, 0.000, 0.000, 18:58:39.946
166, 15884.11, -9139.18, -8605.67, -15317.49, -8951.90, -11541.05, -10522.37, 68654.03, 0.000, 0.000, 0.000, 18:58:39.946
167, 16243.93, -8388.54, -8524.46, -15402.56, -8844.72, -11579.99, -9723.88, 68722.13, 0.000, 0.000, 0.000, 18:58:39.946
168, 16347.95, -8522.18, -8615.75, -15426.21, -8805.67, -11613.50, -9486.35, 68753.43, 0.000, 0.000, 0.000, 18:58:39.946
169, 16046.96, -9305.08, -8761.97, -15368.79, -8872.32, -11601.58, -10148.56, 68710.31, 0.000, 0.000, 0.000, 18:58:39.946
170, 15746.76, -9580.23, -8762.46, -15304.28, -8948.05, -11545.77, -10732.32, 68649.94, -0.106, 0.966, 0.146, 18:58:39.946
171, 15885.61, -9108.45, -8587.29, -15316.13, -8941.41, -11502.03, -10497.63, 68663.06, 0.000, 0.000, 0.000, 18:58:39.946
172, 16252.22, -8353.12, -8495.00, -15395.66, -8886.29, -11530.93, -9690.75, 68731.86, 0.000, 0.000, 0.000, 18:58:39.946
173, 16350.32, -8492.08, -8594.45, -15423.62, -8797.07, -11581.13, -9514.49, 68763.02, 0.000, 0.000, 0.000, 18:58:39.946
174, 16017.53, -9297.59, -8767.96, -15370.15, -8851.98, -11593.94, -10166.29, 68718.16, 0.000, 0.000, 0.000, 18:58:39.946
175, 15718.82, -9577.59, -8770.29, -15297.13, -8951.31, -11542.60, -10744.19, 68658.43, 0.000, 0.000, 0.000, 18:58:39.947
176, 15867.93, -9105.59, -8599.05, -15306.18, -8936.14, -11501.51, -10507.49, 68671.58, 0.000, 0.000, 0.000, 18:58:39.947
177, 16228.73, -8364.69, -8522.43, -15393.51, -8839.56, -11544.41, -9709.58, 68741.00, 0.000, 0.000, 0.000, 18:58:39.947
178, 16317.80, -8521.69, -8625.11, -15422.68, -8797.09, -11595.73, -9489.88, 68772.80, 0.000, 0.000, 0.000, 18:58:39.947
179, 15992.52, -9310.26, -8789.89, -15370.42, -8852.41, -11597.60, -10162.69, 68728.20, 0.000, 0.000, 0.000, 18:58:39.947
180, 15686.07, -9578.66, -8799.14, -15302.09, -8950.04, -11539.40, -10750.61, 68667.30, -0.104, 0.968, 0.142, 18:58:39.947
181, 15823.47, -9111.26, -8634.75, -15310.86, -8948.99, -11491.86, -10521.05, 68682.26, 0.000, 0.000, 0.000, 18:58:39.947
182, 16177.21, -8375.82, -8558.01, -15388.21, -8855.18, -11527.46, -9726.03, 68751.41, 0.000, 0.000, 0.000, 18:58:39.947
183, 16267.13, -8545.41, -8673.06, -15430.62, -8815.86, -11594.88, -9451.17, 68780.85, 0.000, 0.000, 0.000, 18:58:39.947
184, 15964.02, -9333.86, -8833.23, -15373.98, -8848.59, -11605.20, -10119.24, 68736.41, 0.000, 0.000, 0.000, 18:58:39.947
185, 15681.38, -9596.05, -8825.99, -15297.58, -8943.85, -11548.79, -10715.34, 68675.66, 0.000, 0.000, 0.000, 18:58:39.948
186, 15834.22, -9127.42, -8653.83, -15317.45, -8940.94, -11514.88, -10482.10, 68688.45, 0.000, 0.000, 0.000, 18:58:39.948
187, 16190.84, -8381.34, -8572.05, -15404.02, -8841.81, -11557.39, -9690.00, 68756.69, 0.000, 0.000, 0.000, 18:58:39.948
188, 16290.71, -8519.97, -8667.92, -15429.34, -8797.09, -11602.16, -9490.80, 68786.84, 0.000, 0.000, 0.000, 18:58:39.948
189, 15978.23, -9305.32, -8831.40, -15375.00, -8859.83, -11605.23, -10161.44, 68743.28, 0.000, 0.000, 0.000, 18:58:39.948
190, 15679.06, -9570.95, -8830.41, -15312.40, -8953.71, -11556.68, -10742.94, 68683.29, -0.100, 0.970, 0.140, 18:58:39.948
191, 15819.80, -9103.15, -8653.19, -15322.12, -8948.14, -11514.55, -10511.65, 68695.80, 0.000, 0.000, 0.000, 18:58:39.948
192, 16192.03, -8350.81, -8554.77, -15392.08, -8863.09, -11539.83, -9702.71, 68766.10, 0.000, 0.000, 0.000, 18:58:39.948
193, 16301.28, -8492.90, -8650.55, -15423.84, -8793.65, -11587.28, -9504.39, 68798.24, 0.000, 0.000, 0.000, 18:58:39.948
194, 15993.03, -9284.22, -8817.36, -15374.18, -8870.36, -11589.80, -10159.69, 68753.47, 0.000, 0.000, 0.000, 18:58:40.400
195, 15688.13, -9562.30, -8830.48, -15310.70, -8945.53, -11539.04, -10736.39, 68692.09, 0.000, 0.000, 0.000, 18:58:40.400
196, 15818.87, -9095.28, -8666.96, -15327.19, -8935.31, -11501.51, -10502.93, 68706.87, 0.000, 0.000, 0.000, 18:58:40.401
197, 16181.95, -8345.58, -8579.54, -15402.39, -8858.96, -11529.01, -9696.72, 68776.72, 0.000, 0.000, 0.000, 18:58:40.401
198, 16284.34, -8491.09, -8677.15, -15428.56, -8789.98, -11579.77, -9502.67, 68807.67, 0.000, 0.000, 0.000, 18:58:40.401
199, 15969.52, -9292.02, -8841.66, -15372.52, -8851.09, -11590.61, -10166.56, 68762.81, -0.104, 0.974, 0.136, 18:58:40.401
200, 15670.16, -9574.75, -8851.07, -15309.78, -8940.50, -11548.74, -10747.61, 68699.70, 0.000, 0.000, 0.000, 18:58:40.401
201, 15810.86, -9107.06, -8692.19, -15327.02, -8939.63, -11520.22, -10514.08, 68715.27, 0.000, 0.000, 0.000, 18:58:40.401
202, 16175.42, -8363.46, -8607.12, -15399.66, -8848.43, -11555.23, -9709.64, 68786.02, 0.000, 0.000, 0.000, 18:58:40.401
203, 16274.48, -8520.73, -8711.95, -15433.45, -8796.91, -11611.64, -9468.42, 68815.97, 0.000, 0.000, 0.000, 18:58:40.401
204, 15955.43, -9311.96, -8879.63, -15384.33, -8841.68, -11626.24, -10129.43, 68771.55, 0.000, 0.000, 0.000, 18:58:40.402
205, 15651.72, -9580.65, -8877.11, -15317.74, -8939.40, -11580.82, -10717.19, 68710.49, 0.000, 0.000, 0.000, 18:58:40.402
206, 15787.80, -9117.86, -8701.89, -15336.98, -8930.13, -11552.99, -10488.87, 68724.57, 0.000, 0.000, 0.000, 18:58:40.402
207, 16135.90, -8375.22, -8617.92, -15420.00, -8822.77, -11597.34, -9700.34, 68793.46, 0.000, 0.000, 0.000, 18:58:40.402
208, 16227.99, -8520.53, -8711.93, -15446.69, -8786.72, -11643.72, -9467.15, 68824.93, 0.000, 0.000, 0.000, 18:58:40.402
209, 15921.24, -9303.11, -8864.81, -15388.33, -8847.33, -11642.71, -10118.46, 68779.42, -0.102, 0.974, 0.136, 18:58:40.402
210, 15626.13, -9564.51, -8862.47, -15325.05, -8936.36, -11591.52, -10699.69, 68718.20, 0.000, 0.000, 0.000, 18:58:40.402
211, 15773.42, -9088.40, -8681.22, -15332.92, -8927.22, -11547.78, -10462.58, 68732.38, 0.000, 0.000, 0.000, 18:58:40.402
212, 16160.06, -8339.64, -8578.55, -15412.33, -8870.94, -11575.99, -9656.71, 68801.39, 0.000, 0.000, 0.000, 18:58:40.402
213, 16293.15, -8478.11, -8666.13, -15443.36, -8798.41, -11611.71, -9503.09, 68833.38, 0.000, 0.000, 0.000, 18:58:40.402
214, 16002.73, -9258.45, -8823.89, -15388.44, -8874.56, -11604.62, -10142.28, 68787.71, 0.000, 0.000, 0.000, 18:58:40.403
215, 15719.24, -9524.01, -8821.99, -15317.94, -8922.32, -11539.56, -10698.82, 68726.60, 0.000, 0.000, 0.000, 18:58:40.403
216, 15860.71, -9049.98, -8654.30, -15337.83, -8906.10, -11496.51, -10458.20, 68741.20, 0.000, 0.000, 0.000, 18:58:40.403
217, 16235.70, -8295.38, -8560.47, -15418.25, -8879.54, -11527.00, -9641.76, 68812.95, 0.000, 0.000, 0.000, 18:58:40.403
218, 16346.52, -8429.27, -8660.09, -15451.85, -8796.57, -11582.72, -9492.32, 68843.91, 0.000, 0.000, 0.000, 18:58:40.403
219, 16024.17, -9231.99, -8835.73, -15397.58, -8861.33, -11593.09, -10128.71, 68798.98, -0.102, 0.976, 0.134, 18:58:40.403
220, 15721.97, -9517.62, -8842.19, -15325.67, -8926.33, -11539.85, -10691.11, 68739.62, 0.000, 0.000, 0.000, 18:58:40.403
221, 15865.45, -9042.82, -8674.80, -15337.43, -8911.33, -11505.18, -10450.13, 68753.29, 0.000, 0.000, 0.000, 18:58:40.403
222, 16241.25, -8299.72, -8584.50, -15411.97, -8852.88, -11540.14, -9640.22, 68824.93, 0.000, 0.000, 0.000, 18:58:40.404
