%OpenBCI Raw EEG Data
%
%Sample Rate = 250.0 Hz
%First Column = SampleIndex
%Last Column = Timestamp 
%Other Columns = EEG data in microvolts followed by Accel Data (in G) interleaved with Aux Data
0, 0.00, 0.00, 0.00, 0.00, 0.00, 0.00, 0.00, 0.00, 0.010, 0.990, 0.072, 18:47:28.105
1, 23719.80, 28544.29, -13206.68, -19969.36, -13811.86, -6811.45, 104047.14, 37230.50, 0.000, 0.000, 0.000, 18:47:28.584
2, 23709.14, 28524.24, -13486.86, -19924.26, -13809.73, -6785.61, 104022.65, 37180.11, 0.000, 0.000, 0.000, 18:47:28.584
3, 23698.95, 28495.41, -13521.20, -19848.26, -13737.76, -6710.95, 103983.66, 37104.92, 0.000, 0.000, 0.000, 18:47:28.584
4, 23702.88, 28495.81, -13524.12, -19847.54, -13696.43, -6691.20, 103987.48, 37108.92, 0.000, 0.000, 0.000, 18:47:28.585
5, 23714.64, 28522.68, -13355.21, -19929.82, -13760.61, -6762.43, 104030.36, 37182.98, 0.000, 0.000, 0.000, 18:47:28.585
6, 23717.73, 28536.54, -13166.25, -19984.63, -13852.81, -6835.21, 104055.15, 37222.22, 0.000, 0.000, 0.000, 18:47:28.585
7, 23706.35, 28515.33, -13439.75, -19936.17, -13850.41, -6805.64, 104029.66, 37170.97, -0.008, 0.988, 0.064, 18:47:28.586
8, 23696.54, 28486.54, -13528.19, -19852.69, -13775.85, -6723.45, 103990.73, 37095.82, 0.000, 0.000, 0.000, 18:47:28.586
9, 23700.29, 28486.54, -13524.03, -19847.63, -13719.99, -6695.04, 103993.86, 37098.71, 0.000, 0.000, 0.000, 18:47:28.586
10, 23712.25, 28513.25, -13331.38, -19928.08, -13770.22, -6758.14, 104036.59, 37172.27, 0.000, 0.000, 0.000, 18:47:28.586
11, 23714.04, 28525.81, -13173.89, -19981.65, -13857.72, -6821.19, 104060.40, 37210.64, 0.000, 0.000, 0.000, 18:47:28.587
12, 23704.29, 28506.72, -13464.60, -19935.92, -13852.31, -6791.04, 104037.06, 37161.72, 0.000, 0.000, 0.000, 18:47:28.587
13, 23695.42, 28479.09, -13530.87, -19860.24, -13769.93, -6712.16, 103999.38, 37087.60, 0.000, 0.000, 0.000, 18:47:28.587
14, 23699.78, 28479.97, -13529.78, -19859.26, -13715.68, -6681.92, 104003.31, 37091.00, 0.000, 0.000, 0.000, 18:47:28.587
15, 23711.76, 28507.15, -13352.73, -19936.35, -13765.34, -6745.69, 104046.38, 37164.91, 0.000, 0.000, 0.000, 18:47:28.587
16, 23714.37, 28520.85, -13233.73, -19980.63, -13835.42, -6791.04, 104071.44, 37204.90, 0.000, 0.000, 0.000, 18:47:28.587
17, 23703.87, 28501.74, -13507.99, -19922.42, -13814.18, -6741.82, 104048.40, 37156.38, -0.016, 0.992, 0.056, 18:47:28.588
18, 23691.80, 28471.20, -13490.26, -19838.65, -13730.30, -6655.37, 104007.76, 37078.97, 0.000, 0.000, 0.000, 18:47:28.588
19, 23696.20, 28471.92, -13499.56, -19835.76, -13680.16, -6631.47, 104011.25, 37081.57, 0.000, 0.000, 0.000, 18:47:28.588
20, 23707.64, 28498.07, -13411.52, -19918.38, -13738.19, -6703.51, 104053.47, 37154.27, 0.000, 0.000, 0.000, 18:47:28.588
21, 23709.50, 28510.81, -13239.47, -19974.66, -13825.13, -6773.20, 104077.50, 37193.32, 0.000, 0.000, 0.000, 18:47:28.588
22, 23699.17, 28491.52, -13501.77, -19925.26, -13815.86, -6740.32, 104054.34, 37144.82, 0.000, 0.000, 0.000, 18:47:28.589
23, 23687.78, 28461.48, -13501.21, -19844.62, -13745.61, -6662.25, 104014.04, 37067.93, 0.000, 0.000, 0.000, 18:47:28.589
24, 23691.37, 28461.26, -13513.44, -19843.56, -13703.97, -6649.58, 104016.63, 37069.23, 0.000, 0.000, 0.000, 18:47:28.589
25, 23703.69, 28488.35, -13405.93, -19918.51, -13755.08, -6719.65, 104059.68, 37142.96, 0.000, 0.000, 0.000, 18:47:28.589
26, 23705.50, 28501.45, -13194.93, -19966.01, -13838.10, -6781.56, 104084.23, 37182.91, 0.000, 0.000, 0.000, 18:47:28.590
27, 23694.21, 28481.58, -13473.88, -19922.94, -13837.14, -6750.83, 104060.35, 37134.05, -0.022, 0.992, 0.058, 18:47:28.590
28, 23683.39, 28452.23, -13498.15, -19842.04, -13755.84, -6658.90, 104020.84, 37057.61, 0.000, 0.000, 0.000, 18:47:28.590
29, 23686.19, 28451.56, -13507.47, -19845.53, -13708.35, -6633.91, 104022.73, 37058.03, 0.000, 0.000, 0.000, 18:47:28.590
30, 23697.27, 28477.89, -13382.48, -19926.67, -13762.44, -6703.20, 104064.87, 37130.87, 0.000, 0.000, 0.000, 18:47:28.590
31, 23700.40, 28492.51, -13192.56, -19978.37, -13845.03, -6763.55, 104090.93, 37172.76, 0.000, 0.000, 0.000, 18:47:28.591
32, 23689.09, 28472.68, -13476.58, -19935.01, -13839.26, -6727.47, 104067.35, 37124.41, 0.000, 0.000, 0.000, 18:47:28.591
33, 23681.16, 28445.95, -13508.99, -19856.53, -13757.21, -6651.90, 104030.18, 37050.54, 0.000, 0.000, 0.000, 18:47:28.591
34, 23683.64, 28444.29, -13512.01, -19856.26, -13706.13, -6628.23, 104030.78, 37049.54, 0.000, 0.000, 0.000, 18:47:28.591
35, 23693.99, 28469.66, -13341.96, -19937.51, -13764.87, -6688.96, 104071.80, 37121.15, 0.000, 0.000, 0.000, 18:47:28.591
36, 23695.55, 28482.92, -13161.35, -19992.21, -13835.37, -6751.43, 104096.63, 37161.88, 0.000, 0.000, 0.000, 18:47:28.592
37, 23683.77, 28462.98, -13445.94, -19951.86, -13821.29, -6715.38, 104072.83, 37113.64, -0.020, 0.992, 0.060, 18:47:28.592
38, 23672.58, 28433.03, -13503.85, -19866.43, -13731.62, -6613.28, 104032.44, 37036.41, 0.000, 0.000, 0.000, 18:47:28.592
39, 23677.34, 28433.52, -13507.47, -19861.76, -13676.81, -6573.33, 104035.03, 37037.13, 0.000, 0.000, 0.000, 18:47:28.592
40, 23690.10, 28461.23, -13379.04, -19940.88, -13726.70, -6627.16, 104078.30, 37110.96, 0.000, 0.000, 0.000, 18:47:28.592
41, 23693.88, 28476.48, -13176.42, -19991.87, -13807.25, -6685.05, 104105.05, 37154.12, 0.000, 0.000, 0.000, 18:47:28.592
42, 23681.52, 28455.85, -13454.61, -19950.65, -13813.40, -6663.66, 104080.58, 37105.59, 0.000, 0.000, 0.000, 18:47:28.593
43, 23670.34, 28425.90, -13507.43, -19866.61, -13744.78, -6582.32, 104040.17, 37028.14, 0.000, 0.000, 0.000, 18:47:28.593
44, 23672.96, 28424.29, -13500.43, -19861.49, -13697.98, -6553.24, 104040.55, 37026.22, 0.000, 0.000, 0.000, 18:47:28.593
45, 23683.46, 28450.10, -13297.25, -19947.95, -13761.54, -6618.84, 104081.84, 37098.04, 0.000, 0.000, 0.000, 18:47:28.593
46, 23688.22, 28466.67, -13150.47, -19998.31, -13845.94, -6670.19, 104110.16, 37142.90, 0.000, 0.000, 0.000, 18:47:28.593
47, 23680.13, 28450.10, -13433.22, -19953.00, -13842.41, -6626.53, 104089.86, 37098.64, -0.022, 0.986, 0.060, 18:47:28.594
48, 23670.25, 28421.05, -13523.41, -19873.27, -13766.91, -6531.65, 104050.41, 37022.22, 0.000, 0.000, 0.000, 18:47:28.594
49, 23672.11, 28417.98, -13513.64, -19869.27, -13714.43, -6494.90, 104049.29, 37018.38, 0.000, 0.000, 0.000, 18:47:28.594
50, 23682.54, 28442.79, -13301.10, -19948.33, -13767.87, -6552.35, 104089.45, 37088.94, 0.000, 0.000, 0.000, 18:47:28.594
51, 23685.72, 28457.53, -13144.97, -20004.41, -13854.97, -6609.10, 104116.01, 37132.08, 0.000, 0.000, 0.000, 18:47:28.595
52, 23675.44, 28438.82, -13403.56, -19962.54, -13851.00, -6571.28, 104093.66, 37085.92, 0.000, 0.000, 0.000, 18:47:28.595
53, 23666.90, 28411.05, -13518.74, -19878.59, -13766.55, -6474.21, 104055.62, 37010.46, 0.000, 0.000, 0.000, 18:47:28.595
54, 23669.87, 28408.71, -13510.42, -19869.65, -13711.66, -6425.99, 104055.13, 37007.00, 0.000, 0.000, 0.000, 18:47:28.596
55, 23681.47, 28434.12, -13312.45, -19954.38, -13763.04, -6485.72, 104095.96, 37078.14, 0.000, 0.000, 0.000, 18:47:28.596
56, 23684.71, 28448.45, -13157.80, -20009.64, -13840.78, -6536.52, 104122.09, 37121.06, -0.022, 0.984, 0.056, 18:47:28.596
57, 23675.46, 28430.28, -13436.73, -19962.43, -13833.43, -6489.94, 104100.56, 37075.80, 0.000, 0.000, 0.000, 18:47:28.596
58, 23667.35, 28402.61, -13509.97, -19880.04, -13742.68, -6396.53, 104062.43, 37000.43, 0.000, 0.000, 0.000, 18:47:28.596
59, 23671.28, 28401.33, -13511.61, -19875.95, -13688.34, -6356.59, 104062.99, 36997.57, 0.000, 0.000, 0.000, 18:47:28.597
60, 23682.23, 28426.70, -13391.51, -19955.35, -13736.58, -6407.35, 104103.85, 37068.38, 0.000, 0.000, 0.000, 18:47:28.597
61, 23687.01, 28443.24, -13175.44, -20011.38, -13817.11, -6462.40, 104132.33, 37113.95, 0.000, 0.000, 0.000, 18:47:28.597
62, 23676.44, 28424.40, -13453.74, -19972.65, -13816.06, -6432.25, 104110.09, 37068.47, 0.000, 0.000, 0.000, 18:47:28.597
63, 23666.43, 28394.94, -13508.97, -19893.88, -13742.66, -6343.96, 104070.01, 36991.11, 0.000, 0.000, 0.000, 18:47:28.598
64, 23669.74, 28392.77, -13505.04, -19882.50, -13686.98, -6316.13, 104069.38, 36986.79, 0.000, 0.000, 0.000, 18:47:28.598
65, 23681.25, 28418.41, -13367.10, -19959.86, -13737.31, -6390.10, 104110.42, 37057.85, 0.000, 0.000, 0.000, 18:47:28.598
66, 23684.31, 28433.34, -13146.67, -20016.84, -13830.37, -6466.61, 104137.11, 37101.86, -0.026, 0.982, 0.060, 18:47:28.598
67, 23674.72, 28415.41, -13405.03, -19973.92, -13836.87, -6451.00, 104115.79, 37057.43, 0.000, 0.000, 0.000, 18:47:28.600
68, 23664.82, 28385.80, -13520.01, -19891.51, -13764.11, -6378.20, 104075.51, 36979.60, 0.000, 0.000, 0.000, 18:47:28.600
69, 23666.99, 28382.54, -13515.47, -19881.68, -13714.00, -6372.95, 104073.61, 36973.67, 0.000, 0.000, 0.000, 18:47:28.600
70, 23679.30, 28408.82, -13304.88, -19962.57, -13766.15, -6450.69, 104115.00, 37045.20, 0.000, 0.000, 0.000, 18:47:28.601
71, 23684.60, 28425.47, -13140.28, -20016.93, -13854.30, -6516.58, 104143.62, 37091.36, 0.000, 0.000, 0.000, 18:47:28.601
72, 23676.62, 28408.80, -13389.19, -19972.58, -13852.52, -6493.20, 104123.48, 37048.35, 0.000, 0.000, 0.000, 18:47:28.601
73, 23665.67, 28378.02, -13535.23, -19889.14, -13772.83, -6413.30, 104082.13, 36969.52, 0.000, 0.000, 0.000, 18:47:28.601
74, 23667.88, 28374.26, -13517.06, -19878.48, -13722.94, -6374.78, 104079.62, 36962.83, 0.000, 0.000, 0.000, 18:47:28.602
75, 23679.44, 28399.43, -13278.41, -19957.34, -13772.79, -6432.23, 104119.83, 37033.04, 0.000, 0.000, 0.000, 18:47:28.602
76, 23684.15, 28415.75, -13135.58, -20010.96, -13852.05, -6486.39, 104148.20, 37079.33, -0.022, 0.984, 0.058, 18:47:28.602
77, 23675.46, 28398.85, -13350.16, -19974.05, -13853.59, -6452.70, 104128.03, 37036.48, 0.000, 0.000, 0.000, 18:47:28.602
78, 23666.47, 28370.00, -13542.83, -19897.28, -13773.05, -6360.77, 104088.47, 36959.46, 0.000, 0.000, 0.000, 18:47:28.603
79, 23670.45, 28367.89, -13531.75, -19893.41, -13715.30, -6330.44, 104087.51, 36954.07, 0.000, 0.000, 0.000, 18:47:28.603
80, 23682.25, 28393.00, -13282.90, -19969.18, -13755.67, -6389.04, 104127.72, 37024.30, 0.000, 0.000, 0.000, 18:47:28.603
81, 23688.18, 28410.43, -13141.22, -20025.26, -13835.06, -6444.72, 104157.36, 37072.22, 0.000, 0.000, 0.000, 18:47:28.603
82, 23680.82, 28395.14, -13362.81, -19985.63, -13839.57, -6419.78, 104138.70, 37031.27, 0.000, 0.000, 0.000, 18:47:28.604
83, 23671.46, 28365.88, -13536.93, -19902.15, -13751.87, -6337.26, 104098.73, 36953.54, 0.000, 0.000, 0.000, 18:47:28.604
84, 23671.99, 28360.18, -13535.01, -19895.89, -13690.85, -6312.09, 104093.95, 36944.04, 0.000, 0.000, 0.000, 18:47:28.604
85, 23685.14, 28386.94, -13322.04, -19972.94, -13743.10, -6389.56, 104135.79, 37015.67, 0.000, 0.000, 0.000, 18:47:28.604
86, 23688.40, 28402.23, -13147.85, -20027.32, -13834.37, -6471.63, 104163.33, 37061.58, -0.024, 0.982, 0.058, 18:47:28.604
87, 23679.06, 28385.40, -13348.28, -19988.54, -13844.96, -6462.07, 104143.01, 37019.20, 0.000, 0.000, 0.000, 18:47:28.604
88, 23669.49, 28356.16, -13547.41, -19904.74, -13771.96, -6395.84, 104103.05, 36941.35, 0.000, 0.000, 0.000, 18:47:28.604
89, 23671.99, 28351.98, -13535.39, -19893.81, -13724.78, -6391.79, 104099.73, 36932.90, 0.000, 0.000, 0.000, 18:47:28.604
90, 23683.55, 28376.84, -13281.43, -19967.46, -13774.58, -6469.67, 104139.43, 37002.39, 0.000, 0.000, 0.000, 18:47:28.605
91, 23689.18, 28394.18, -13149.73, -20025.93, -13859.67, -6552.84, 104169.14, 37050.52, 0.000, 0.000, 0.000, 18:47:28.605
92, 23680.20, 28377.13, -13346.36, -19992.54, -13870.73, -6547.29, 104148.66, 37008.14, 0.000, 0.000, 0.000, 18:47:28.606
93, 23670.34, 28347.33, -13549.05, -19905.86, -13789.93, -6465.89, 104108.12, 36929.51, 0.000, 0.000, 0.000, 18:47:28.606
94, 23674.83, 28345.23, -13531.03, -19888.34, -13730.32, -6432.38, 104106.66, 36922.58, 0.000, 0.000, 0.000, 18:47:28.606
95, 23687.17, 28370.76, -13291.51, -19966.79, -13779.20, -6503.37, 104147.05, 36992.72, 0.000, 0.000, 0.000, 18:47:28.606
96, 23692.71, 28387.90, -13151.45, -20017.66, -13858.10, -6562.23, 104176.63, 37041.09, -0.024, 0.990, 0.054, 18:47:28.606
97, 23683.06, 28370.13, -13380.96, -19976.85, -13857.97, -6530.33, 104155.98, 36998.64, 0.000, 0.000, 0.000, 18:47:28.606
98, 23672.80, 28339.84, -13539.48, -19891.22, -13773.46, -6434.66, 104115.00, 36919.67, 0.000, 0.000, 0.000, 18:47:28.606
99, 23674.72, 28335.06, -13535.86, -19879.02, -13710.38, -6397.09, 104110.87, 36909.84, 0.000, 0.000, 0.000, 18:47:28.606
100, 23686.08, 28359.87, -13350.79, -19957.58, -13755.13, -6457.80, 104150.56, 36979.15, 0.000, 0.000, 0.000, 18:47:28.607
101, 23691.42, 28377.19, -13162.58, -20015.70, -13834.12, -6510.71, 104180.41, 37027.96, 0.000, 0.000, 0.000, 18:47:28.607
102, 23685.34, 28363.18, -13432.93, -19977.94, -13836.67, -6480.20, 104163.57, 36989.68, 0.000, 0.000, 0.000, 18:47:28.607
103, 23675.95, 28334.01, -13545.36, -19901.63, -13760.43, -6400.80, 104123.43, 36911.58, 0.000, 0.000, 0.000, 18:47:28.607
104, 23677.52, 28328.85, -13532.89, -19886.26, -13699.23, -6370.92, 104118.67, 36900.94, 0.000, 0.000, 0.000, 18:47:28.607
105, 23688.58, 28353.39, -13343.57, -19966.61, -13757.54, -6447.29, 104158.16, 36969.92, -0.024, 0.998, 0.046, 18:47:28.608
106, 23693.97, 28371.16, -13156.77, -20026.80, -13841.59, -6521.95, 104188.43, 37019.47, 0.000, 0.000, 0.000, 18:47:28.608
107, 23686.50, 28356.67, -13393.63, -19989.63, -13850.79, -6513.48, 104171.04, 36980.87, 0.000, 0.000, 0.000, 18:47:28.608
108, 23677.34, 28328.02, -13547.46, -19908.05, -13776.74, -6442.85, 104131.43, 36903.27, 0.000, 0.000, 0.000, 18:47:28.608
109, 23677.98, 28321.76, -13543.41, -19893.30, -13717.87, -6426.66, 104125.48, 36891.29, 0.000, 0.000, 0.000, 18:47:28.608
110, 23689.25, 28346.24, -13347.68, -19965.63, -13764.99, -6504.18, 104164.58, 36959.88, 0.000, 0.000, 0.000, 18:47:28.608
111, 23694.77, 28364.27, -13157.38, -20022.74, -13854.24, -6585.18, 104195.23, 37010.11, 0.000, 0.000, 0.000, 18:47:28.608
112, 23685.79, 28348.40, -13389.50, -19986.46, -13863.60, -6576.15, 104176.54, 36970.63, 0.000, 0.000, 0.000, 18:47:28.608
113, 23674.70, 28317.78, -13549.56, -19901.12, -13784.54, -6496.40, 104134.85, 36891.08, 0.000, 0.000, 0.000, 18:47:28.608
114, 23679.06, 28314.83, -13546.14, -19881.00, -13726.12, -6465.96, 104132.13, 36881.79, 0.000, 0.000, 0.000, 18:47:28.608
115, 23691.37, 28340.09, -13377.94, -19947.54, -13765.30, -6529.30, 104171.95, 36951.03, -0.022, 1.000, 0.050, 18:47:28.608
116, 23696.85, 28357.90, -13168.40, -20005.53, -13848.00, -6594.75, 104202.11, 37001.03, 0.000, 0.000, 0.000, 18:47:28.608
117, 23689.83, 28343.22, -13426.00, -19969.18, -13855.22, -6575.41, 104184.90, 36963.32, 0.000, 0.000, 0.000, 18:47:28.609
118, 23681.14, 28314.59, -13540.64, -19884.13, -13775.18, -6497.23, 104145.20, 36885.54, 0.000, 0.000, 0.000, 18:47:28.609
119, 23681.85, 28307.86, -13533.89, -19865.18, -13709.64, -6456.66, 104138.36, 36872.02, 0.000, 0.000, 0.000, 18:47:28.609
120, 23693.18, 28331.84, -13430.69, -19935.72, -13747.89, -6513.43, 104176.98, 36940.14, 0.000, 0.000, 0.000, 18:47:28.609
121, 23700.47, 28351.55, -13247.79, -19992.61, -13828.08, -6573.47, 104209.48, 36992.54, 0.000, 0.000, 0.000, 18:47:29.098
122, 23693.99, 28338.30, -13518.71, -19958.30, -13835.77, -6549.19, 104193.81, 36956.51, 0.000, 0.000, 0.000, 18:47:29.099
123, 23680.00, 28305.09, -13532.01, -19882.46, -13760.45, -6469.49, 104149.72, 36874.19, 0.000, 0.000, 0.000, 18:47:29.099
124, 23680.80, 28298.85, -13521.67, -19865.18, -13692.70, -6427.29, 104143.41, 36860.80, 0.000, 0.000, 0.000, 18:47:29.099
125, 23691.28, 28322.90, -13416.30, -19941.58, -13730.63, -6489.31, 104181.90, 36928.68, -0.022, 0.994, 0.052, 18:47:29.100
126, 23696.89, 28342.14, -13174.16, -20009.73, -13821.67, -6569.13, 104213.77, 36980.74, 0.000, 0.000, 0.000, 18:47:29.100
127, 23687.66, 28326.68, -13419.27, -19977.29, -13834.52, -6550.98, 104195.80, 36942.83, 0.000, 0.000, 0.000, 18:47:29.100
128, 23674.90, 28294.42, -13537.38, -19895.55, -13757.30, -6472.22, 104152.58, 36861.60, 0.000, 0.000, 0.000, 18:47:29.101
129, 23676.58, 28288.75, -13529.73, -19878.43, -13697.19, -6447.63, 104146.81, 36848.48, 0.000, 0.000, 0.000, 18:47:29.101
130, 23688.00, 28313.20, -13367.82, -19948.24, -13744.38, -6521.77, 104185.68, 36916.43, 0.000, 0.000, 0.000, 18:47:29.101
131, 23694.70, 28332.87, -13155.28, -20012.50, -13837.67, -6599.55, 104218.16, 36969.29, 0.000, 0.000, 0.000, 18:47:29.102
132, 23687.35, 28319.01, -13391.09, -19980.96, -13852.47, -6585.07, 104201.95, 36933.37, 0.000, 0.000, 0.000, 18:47:29.102
133, 23676.44, 28288.66, -13535.75, -19890.08, -13775.16, -6501.70, 104160.66, 36853.87, 0.000, 0.000, 0.000, 18:47:29.102
134, 23677.89, 28283.07, -13527.25, -19863.75, -13707.36, -6465.67, 104154.63, 36840.19, 0.000, 0.000, 0.000, 18:47:29.102
135, 23690.12, 28308.62, -13395.60, -19934.11, -13747.73, -6527.25, 104194.62, 36909.14, -0.022, 0.992, 0.050, 18:47:29.102
136, 23695.98, 28328.04, -13178.12, -19993.75, -13837.03, -6595.57, 104226.77, 36961.94, 0.000, 0.000, 0.000, 18:47:29.102
137, 23686.41, 28312.71, -13450.56, -19956.73, -13845.00, -6574.07, 104209.15, 36924.99, 0.000, 0.000, 0.000, 18:47:29.103
138, 23675.44, 28282.47, -13525.84, -19875.33, -13771.92, -6495.42, 104167.82, 36845.31, 0.000, 0.000, 0.000, 18:47:29.103
139, 23676.71, 28275.92, -13520.55, -19856.55, -13708.24, -6459.03, 104160.84, 36830.27, 0.000, 0.000, 0.000, 18:47:29.103
140, 23686.54, 28298.67, -13421.64, -19926.83, -13744.85, -6513.48, 104197.98, 36896.25, 0.000, 0.000, 0.000, 18:47:29.103
141, 23692.24, 28317.83, -13180.44, -19989.59, -13829.34, -6583.50, 104229.82, 36949.18, 0.000, 0.000, 0.000, 18:47:29.103
142, 23685.90, 28305.91, -13432.66, -19956.78, -13839.60, -6561.60, 104215.61, 36915.94, 0.000, 0.000, 0.000, 18:47:29.103
143, 23675.55, 28276.70, -13526.96, -19873.54, -13761.70, -6475.77, 104175.17, 36837.13, 0.000, 0.000, 0.000, 18:47:29.103
144, 23677.40, 28271.49, -13526.36, -19859.55, -13701.02, -6444.28, 104169.38, 36823.22, 0.000, 0.000, 0.000, 18:47:29.103
145, 23687.66, 28294.98, -13408.25, -19931.21, -13739.64, -6505.27, 104207.09, 36889.79, -0.020, 0.986, 0.048, 18:47:29.104
146, 23692.02, 28312.60, -13162.32, -19999.02, -13826.21, -6574.45, 104237.54, 36941.49, 0.000, 0.000, 0.000, 18:47:29.104
147, 23686.17, 28301.29, -13399.02, -19973.16, -13834.37, -6556.71, 104223.97, 36909.12, 0.000, 0.000, 0.000, 18:47:29.104
148, 23674.10, 28270.53, -13540.91, -19888.71, -13760.43, -6474.05, 104182.15, 36829.06, 0.000, 0.000, 0.000, 18:47:29.104
149, 23675.15, 28264.29, -13537.42, -19870.05, -13700.14, -6436.43, 104174.95, 36813.46, 0.000, 0.000, 0.000, 18:47:29.104
150, 23687.46, 28289.87, -13393.92, -19940.48, -13740.49, -6489.43, 104214.73, 36881.81, 0.000, 0.000, 0.000, 18:47:29.104
151, 23692.54, 28308.51, -13159.77, -20005.12, -13829.78, -6563.23, 104246.21, 36934.71, 0.000, 0.000, 0.000, 18:47:29.104
152, 23685.20, 28295.72, -13383.64, -19976.98, -13850.01, -6554.29, 104231.32, 36901.16, 0.000, 0.000, 0.000, 18:47:29.105
153, 23672.58, 28264.47, -13544.42, -19891.02, -13775.31, -6474.92, 104188.97, 36820.50, 0.000, 0.000, 0.000, 18:47:29.105
154, 23674.36, 28259.06, -13531.10, -19863.08, -13708.21, -6433.37, 104182.66, 36805.57, -0.024, 0.988, 0.044, 18:47:29.105
155, 23686.34, 28284.37, -13367.26, -19938.13, -13751.40, -6502.50, 104221.87, 36873.67, 0.000, 0.000, 0.000, 18:47:29.105
156, 23692.47, 28304.08, -13156.62, -20001.14, -13838.61, -6579.19, 104254.52, 36928.07, 0.000, 0.000, 0.000, 18:47:29.105
157, 23686.12, 28291.90, -13408.83, -19967.51, -13851.60, -6568.08, 104240.40, 36895.60, 0.000, 0.000, 0.000, 18:47:29.105
158, 23674.74, 28261.66, -13533.58, -19880.04, -13775.25, -6491.35, 104199.05, 36816.03, 0.000, 0.000, 0.000, 18:47:29.105
159, 23674.61, 28254.08, -13526.09, -19857.38, -13711.68, -6458.51, 104190.53, 36798.59, 0.000, 0.000, 0.000, 18:47:29.106
160, 23685.92, 28278.38, -13416.59, -19931.54, -13752.80, -6529.95, 104228.77, 36865.47, 0.000, 0.000, 0.000, 18:47:29.106
161, 23690.30, 28296.37, -13171.44, -19997.37, -13833.65, -6600.72, 104259.77, 36918.33, 0.000, 0.000, 0.000, 18:47:29.106
162, 23681.96, 28282.85, -13407.67, -19968.62, -13840.83, -6571.48, 104244.35, 36884.67, 0.000, 0.000, 0.000, 18:47:29.106
163, 23670.29, 28252.22, -13516.61, -19879.78, -13762.48, -6481.60, 104202.48, 36804.56, 0.000, 0.000, 0.000, 18:47:29.106
164, 23673.69, 28247.62, -13506.20, -19852.84, -13694.29, -6444.28, 104196.77, 36789.43, -0.028, 0.992, 0.042, 18:47:29.106
165, 23684.82, 28271.92, -13470.90, -19922.71, -13720.98, -6506.61, 104234.98, 36856.01, 0.000, 0.000, 0.000, 18:47:29.106
166, 23689.63, 28291.03, -13200.02, -19984.54, -13809.85, -6579.75, 104267.06, 36910.02, 0.000, 0.000, 0.000, 18:47:29.106
167, 23680.87, 28277.35, -13430.20, -19962.95, -13837.85, -6567.48, 104251.70, 36876.80, 0.000, 0.000, 0.000, 18:47:29.107
168, 23669.40, 28247.26, -13530.87, -19885.77, -13771.85, -6492.15, 104210.40, 36797.03, 0.000, 0.000, 0.000, 18:47:29.107
169, 23671.37, 28241.58, -13520.73, -19863.06, -13706.63, -6455.94, 104203.47, 36780.44, 0.000, 0.000, 0.000, 18:47:29.107
170, 23682.30, 28266.06, -13399.96, -19930.58, -13741.83, -6511.31, 104241.76, 36847.05, 0.000, 0.000, 0.000, 18:47:29.107
171, 23688.89, 28287.16, -13155.32, -19990.88, -13823.61, -6579.88, 104275.94, 36903.40, 0.000, 0.000, 0.000, 18:47:29.107
172, 23680.40, 28274.15, -13399.85, -19964.78, -13845.12, -6567.50, 104261.16, 36871.08, 0.000, 0.000, 0.000, 18:47:29.107
173, 23668.51, 28243.87, -13527.16, -19880.04, -13774.22, -6489.25, 104219.72, 36791.15, 0.000, 0.000, 0.000, 18:47:29.107
174, 23669.33, 28236.78, -13515.92, -19851.30, -13702.22, -6447.36, 104211.36, 36772.91, -0.020, 0.984, 0.044, 18:47:29.108
175, 23679.82, 28260.07, -13428.75, -19916.19, -13733.49, -6511.38, 104248.51, 36838.36, 0.000, 0.000, 0.000, 18:47:29.108
176, 23685.52, 28279.98, -13166.12, -19979.13, -13821.87, -6597.70, 104281.41, 36893.68, 0.000, 0.000, 0.000, 18:47:29.108
177, 23679.57, 28269.50, -13400.79, -19952.22, -13845.59, -6595.60, 104269.23, 36864.08, 0.000, 0.000, 0.000, 18:47:29.108
178, 23667.77, 28239.28, -13529.17, -19868.31, -13775.60, -6519.76, 104227.88, 36784.44, 0.000, 0.000, 0.000, 18:47:29.108
179, 23667.72, 28231.21, -13517.60, -19840.08, -13706.78, -6485.25, 104218.29, 36765.00, 0.000, 0.000, 0.000, 18:47:29.108
180, 23679.50, 28255.93, -13390.39, -19911.63, -13748.42, -6555.81, 104256.76, 36831.72, 0.000, 0.000, 0.000, 18:47:29.108
181, 23686.28, 28277.06, -13155.28, -19973.54, -13833.20, -6634.11, 104291.02, 36888.71, 0.000, 0.000, 0.000, 18:47:29.108
182, 23676.42, 28262.80, -13405.70, -19943.92, -13843.15, -6623.89, 104275.45, 36855.99, 0.000, 0.000, 0.000, 18:47:29.109
183, 23663.23, 28230.72, -13513.55, -19858.83, -13761.75, -6540.03, 104232.41, 36774.54, 0.000, 0.000, 0.000, 18:47:29.109
184, 23666.56, 28225.42, -13503.05, -19837.91, -13697.68, -6499.08, 104225.64, 36757.44, -0.024, 0.982, 0.040, 18:47:29.109
185, 23678.05, 28249.50, -13465.99, -19909.37, -13727.82, -6552.66, 104263.44, 36823.27, 0.000, 0.000, 0.000, 18:47:29.109
186, 23684.53, 28270.44, -13207.22, -19974.46, -13805.69, -6622.89, 104297.77, 36880.42, 0.000, 0.000, 0.000, 18:47:29.109
187, 23675.86, 28257.48, -13435.57, -19946.92, -13818.09, -6615.40, 104283.60, 36849.38, 0.000, 0.000, 0.000, 18:47:29.109
188, 23664.71, 28227.53, -13504.70, -19860.98, -13744.87, -6545.53, 104242.70, 36769.96, 0.000, 0.000, 0.000, 18:47:29.109
189, 23666.14, 28220.51, -13495.27, -19835.03, -13684.45, -6507.08, 104233.98, 36750.74, 0.000, 0.000, 0.000, 18:47:29.109
190, 23677.38, 28244.49, -13444.08, -19904.72, -13720.35, -6568.82, 104271.80, 36816.61, 0.000, 0.000, 0.000, 18:47:29.110
191, 23682.25, 28263.85, -13179.59, -19974.81, -13811.23, -6655.05, 104304.61, 36872.49, 0.000, 0.000, 0.000, 18:47:29.110
192, 23673.98, 28251.53, -13413.80, -19951.72, -13831.84, -6646.98, 104291.07, 36842.31, 0.000, 0.000, 0.000, 18:47:29.110
193, 23664.26, 28223.14, -13521.17, -19872.85, -13766.98, -6571.64, 104251.75, 36764.39, 0.000, 0.000, 0.000, 18:47:29.110
194, 23663.93, 28214.07, -13510.91, -19851.77, -13704.50, -6531.98, 104241.13, 36742.82, -0.028, 0.984, 0.044, 18:47:29.110
195, 23676.29, 28239.15, -13402.55, -19924.28, -13736.38, -6592.13, 104279.73, 36809.28, 0.000, 0.000, 0.000, 18:47:29.110
196, 23683.19, 28260.67, -13153.82, -19988.54, -13825.85, -6670.94, 104314.67, 36867.52, 0.000, 0.000, 0.000, 18:47:29.110
197, 23675.17, 28247.96, -13392.58, -19960.53, -13842.30, -6661.76, 104301.02, 36837.51, 0.000, 0.000, 0.000, 18:47:29.110
198, 23662.47, 28216.15, -13522.16, -19880.36, -13775.60, -6592.36, 104258.26, 36756.10, 0.000, 0.000, 0.000, 18:47:29.111
199, 23662.63, 28207.30, -13514.36, -19852.95, -13713.62, -6555.79, 104247.62, 36734.11, 0.000, 0.000, 0.000, 18:47:29.111
200, 23675.10, 28231.84, -13424.05, -19919.31, -13748.78, -6613.01, 104286.06, 36800.04, 0.000, 0.000, 0.000, 18:47:29.111
201, 23680.91, 28252.22, -13154.83, -19983.71, -13837.92, -6687.44, 104319.95, 36857.15, 0.000, 0.000, 0.000, 18:47:29.111
202, 23672.04, 28239.26, -13368.02, -19958.25, -13856.94, -6687.22, 104305.73, 36826.75, 0.000, 0.000, 0.000, 18:47:29.111
203, 23661.87, 28210.22, -13515.81, -19871.71, -13782.24, -6619.38, 104265.66, 36748.03, -0.024, 0.994, 0.042, 18:47:29.111
204, 23664.44, 28203.61, -13506.49, -19845.09, -13714.29, -6589.32, 104257.23, 36727.91, 0.000, 0.000, 0.000, 18:47:29.112
205, 23675.26, 28226.68, -13438.47, -19916.77, -13740.94, -6655.99, 104293.75, 36791.95, 0.000, 0.000, 0.000, 18:47:29.112
206, 23679.79, 28245.96, -13181.45, -19979.02, -13818.36, -6735.14, 104326.63, 36848.44, 0.000, 0.000, 0.000, 18:47:29.112
207, 23670.74, 28233.34, -13440.95, -19956.96, -13840.24, -6730.53, 104313.22, 36819.09, 0.000, 0.000, 0.000, 18:47:29.112
208, 23658.72, 28202.65, -13513.95, -19872.85, -13769.23, -6654.38, 104271.53, 36738.69, 0.000, 0.000, 0.000, 18:47:29.112
209, 23659.12, 28193.84, -13498.93, -19843.36, -13696.05, -6611.82, 104260.65, 36715.78, 0.000, 0.000, 0.000, 18:47:29.112
210, 23669.74, 28216.84, -13408.65, -19916.25, -13730.47, -6673.47, 104297.10, 36779.48, 0.000, 0.000, 0.000, 18:47:29.112
211, 23674.70, 28236.69, -13153.35, -19986.19, -13816.37, -6751.81, 104330.63, 36836.77, 0.000, 0.000, 0.000, 18:47:29.112
212, 23667.26, 28225.40, -13360.29, -19960.38, -13834.70, -6739.88, 104318.34, 36808.96, 0.000, 0.000, 0.000, 18:47:29.113
213, 23655.61, 28195.18, -13526.52, -19877.65, -13766.95, -6655.83, 104277.12, 36729.35, -0.018, 0.984, 0.050, 18:47:29.113
214, 23655.25, 28185.75, -13518.42, -19851.97, -13698.27, -6611.65, 104265.52, 36705.65, 0.000, 0.000, 0.000, 18:47:29.113
215, 23669.11, 28211.46, -13380.63, -19926.58, -13733.72, -6676.00, 104304.55, 36772.06, 0.000, 0.000, 0.000, 18:47:29.113
216, 23674.50, 28231.50, -13147.56, -20001.73, -13828.42, -6756.35, 104338.32, 36830.04, 0.000, 0.000, 0.000, 18:47:29.113
217, 23665.38, 28218.81, -13277.63, -19980.43, -13853.70, -6745.02, 104324.59, 36801.23, 0.000, 0.000, 0.000, 18:47:29.113
218, 23654.11, 28188.52, -13526.58, -19898.66, -13781.44, -6665.25, 104283.22, 36721.41, 0.000, 0.000, 0.000, 18:47:29.113
219, 23655.03, 28179.92, -13538.18, -19869.38, -13712.26, -6617.41, 104272.25, 36698.21, 0.000, 0.000, 0.000, 18:47:29.113
220, 23667.90, 28205.06, -13381.43, -19938.09, -13741.67, -6666.74, 104310.36, 36763.50, 0.000, 0.000, 0.000, 18:47:29.114
221, 23674.54, 28226.59, -13152.26, -20006.40, -13831.30, -6724.68, 104345.63, 36823.04, 0.000, 0.000, 0.000, 18:47:29.114
222, 23667.70, 28215.68, -13342.56, -19978.05, -13854.73, -6694.26, 104334.01, 36796.29, 0.000, 0.000, 0.000, 18:47:29.114
223, 23655.68, 28184.25, -13537.18, -19895.47, -13787.92, -6607.38, 104291.70, 36715.33, -0.022, 0.996, 0.048, 18:47:29.114
224, 23656.66, 28175.47, -13534.41, -19874.86, -13724.80, -6563.72, 104280.56, 36691.30, 0.000, 0.000, 0.000, 18:47:29.114
225, 23669.07, 28199.23, -13376.67, -19945.40, -13759.00, -6614.33, 104317.47, 36755.07, 0.000, 0.000, 0.000, 18:47:29.114
226, 23674.72, 28219.32, -13140.97, -20010.26, -13842.52, -6691.82, 104351.30, 36813.19, 0.000, 0.000, 0.000, 18:47:29.114
227, 23668.28, 28208.82, -13326.71, -19988.43, -13857.97, -6675.82, 104340.24, 36787.13, 0.000, 0.000, 0.000, 18:47:29.114
228, 23657.82, 28179.02, -13528.26, -19907.29, -13790.15, -6575.53, 104299.49, 36707.64, 0.000, 0.000, 0.000, 18:47:29.115
229, 23658.29, 28169.34, -13520.79, -19879.66, -13719.19, -6518.06, 104287.23, 36682.34, 0.000, 0.000, 0.000, 18:47:29.115
230, 23669.18, 28191.16, -13380.07, -19950.07, -13754.57, -6580.49, 104322.16, 36743.79, 0.000, 0.000, 0.000, 18:47:29.115
231, 23677.69, 28213.55, -13143.76, -20016.86, -13841.23, -6654.87, 104358.48, 36804.36, 0.000, 0.000, 0.000, 18:47:29.115
232, 23672.46, 28203.81, -13346.63, -19994.06, -13856.16, -6632.23, 104348.27, 36779.48, 0.000, 0.000, 0.000, 18:47:29.115
233, 23659.66, 28171.45, -13524.24, -19908.45, -13782.08, -6539.76, 104305.17, 36697.50, -0.026, 0.992, 0.050, 18:47:29.115
234, 23659.70, 28161.54, -13514.00, -19874.79, -13711.32, -6482.07, 104292.81, 36671.75, 0.000, 0.000, 0.000, 18:47:29.115
235, 23671.93, 28185.57, -13471.93, -19937.96, -13735.08, -6516.61, 104329.87, 36735.45, 0.000, 0.000, 0.000, 18:47:29.115
236, 23678.05, 28206.96, -13185.12, -20006.96, -13821.04, -6573.02, 104365.14, 36795.20, 0.000, 0.000, 0.000, 18:47:29.115
237, 23669.65, 28195.41, -13376.09, -19988.25, -13846.30, -6561.06, 104353.34, 36769.07, 0.000, 0.000, 0.000, 18:47:29.116
238, 23657.67, 28164.85, -13526.63, -19908.18, -13782.04, -6481.74, 104311.85, 36689.09, 0.000, 0.000, 0.000, 18:47:29.116
239, 23657.40, 28154.70, -13515.90, -19879.30, -13719.30, -6434.55, 104299.05, 36662.54, 0.000, 0.000, 0.000, 18:47:29.116
240, 23670.74, 28179.42, -13428.68, -19948.04, -13751.55, -6487.30, 104336.69, 36726.51, 0.000, 0.000, 0.000, 18:47:29.116
241, 23677.78, 28201.24, -13156.39, -20016.23, -13835.04, -6563.37, 104372.36, 36787.04, 0.000, 0.000, 0.000, 18:47:29.545
242, 23670.27, 28190.31, -13354.25, -19991.22, -13858.46, -6547.00, 104361.27, 36761.87, 0.000, 0.000, 0.000, 18:47:29.545
243, 23657.51, 28158.59, -13532.35, -19912.68, -13796.75, -6473.94, 104318.52, 36680.44, -0.024, 0.986, 0.040, 18:47:29.545
244, 23657.51, 28148.33, -13525.62, -19887.71, -13734.03, -6433.37, 104305.44, 36653.42, 0.000, 0.000, 0.000, 18:47:29.545
245, 23667.41, 28169.57, -13373.72, -19957.58, -13770.60, -6497.58, 104339.30, 36713.81, 0.000, 0.000, 0.000, 18:47:29.545
246, 23676.26, 28193.17, -13147.09, -20033.33, -13863.74, -6588.53, 104376.90, 36776.42, 0.000, 0.000, 0.000, 18:47:29.545
247, 23671.95, 28185.41, -13306.60, -20013.88, -13889.15, -6583.77, 104368.63, 36754.38, 0.000, 0.000, 0.000, 18:47:29.546
248, 23661.13, 28155.82, -13543.93, -19932.03, -13822.41, -6497.96, 104327.95, 36675.10, 0.000, 0.000, 0.000, 18:47:29.546
249, 23661.20, 28145.79, -13541.25, -19896.11, -13749.05, -6440.79, 104314.80, 36647.83, 0.000, 0.000, 0.000, 18:47:29.546
250, 23671.70, 28167.85, -13397.01, -19955.01, -13767.22, -6478.63, 104349.30, 36708.67, 0.000, 0.000, 0.000, 18:47:29.546
251, 23679.19, 28190.60, -13148.12, -20020.75, -13849.63, -6547.65, 104385.82, 36770.47, 0.000, 0.000, 0.000, 18:47:29.546
252, 23671.26, 28179.96, -13332.28, -20000.83, -13873.03, -6539.32, 104374.91, 36746.00, -0.026, 0.982, 0.040, 18:47:29.546
253, 23658.34, 28148.29, -13534.96, -19917.10, -13804.33, -6449.69, 104332.22, 36664.55, 0.000, 0.000, 0.000, 18:47:29.546
254, 23658.16, 28137.45, -13525.71, -19878.88, -13730.36, -6391.39, 104318.07, 36635.91, 0.000, 0.000, 0.000, 18:47:29.546
255, 23669.56, 28159.71, -13419.92, -19941.76, -13756.65, -6435.87, 104352.89, 36696.71, 0.000, 0.000, 0.000, 18:47:29.547
0, 23677.20, 28182.35, -13151.72, -20010.64, -13839.82, -6501.65, 104389.52, 36758.70, 0.000, 0.000, 0.000, 18:47:29.547
1, 23671.86, 28174.33, -13358.09, -19993.50, -13855.15, -6482.14, 104381.50, 36737.50, 0.000, 0.000, 0.000, 18:47:29.547
2, 23659.05, 28143.15, -13534.47, -19912.36, -13786.82, -6389.27, 104339.41, 36656.77, 0.000, 0.000, 0.000, 18:47:29.547
3, 23658.05, 28131.70, -13527.14, -19882.55, -13722.72, -6336.76, 104324.59, 36627.20, 0.000, 0.000, 0.000, 18:47:29.547
4, 23669.24, 28154.05, -13412.16, -19941.98, -13747.91, -6379.88, 104359.35, 36687.95, 0.000, 0.000, 0.000, 18:47:29.547
5, 23675.73, 28175.92, -13148.79, -20009.10, -13833.65, -6443.27, 104395.25, 36749.42, 0.000, 0.000, 0.000, 18:47:29.547
6, 23670.90, 28168.54, -13317.84, -19989.72, -13857.77, -6436.61, 104387.96, 36729.14, -0.018, 0.982, 0.042, 18:47:29.547
7, 23659.88, 28138.83, -13530.83, -19901.03, -13793.13, -6357.10, 104347.30, 36649.66, 0.000, 0.000, 0.000, 18:47:29.547
8, 23658.83, 28127.01, -13524.62, -19859.90, -13724.51, -6314.19, 104332.11, 36619.29, 0.000, 0.000, 0.000, 18:47:29.547
9, 23670.94, 28150.17, -13410.08, -19924.32, -13753.30, -6362.96, 104367.69, 36680.48, 0.000, 0.000, 0.000, 18:47:29.548
10, 23677.25, 28171.62, -13145.53, -19998.20, -13842.01, -6434.87, 104403.34, 36741.84, 0.000, 0.000, 0.000, 18:47:29.548
11, 23670.29, 28162.15, -13295.76, -19986.24, -13872.03, -6444.10, 104394.06, 36719.78, 0.000, 0.000, 0.000, 18:47:29.548
12, 23659.16, 28132.15, -13531.99, -19907.11, -13805.08, -6378.43, 104353.05, 36640.07, 0.000, 0.000, 0.000, 18:47:29.548
13, 23658.85, 28120.71, -13535.81, -19876.60, -13735.88, -6361.46, 104338.01, 36609.72, 0.000, 0.000, 0.000, 18:47:29.548
14, 23668.39, 28141.20, -13399.22, -19946.36, -13762.62, -6429.97, 104370.70, 36667.99, 0.000, 0.000, 0.000, 18:47:29.548
15, 23677.45, 28165.79, -13150.78, -20021.40, -13845.72, -6515.69, 104409.58, 36732.66, 0.000, 0.000, 0.000, 18:47:29.548
16, 23671.64, 28157.63, -13316.05, -20004.68, -13870.29, -6520.83, 104401.73, 36712.20, -0.020, 0.988, 0.046, 18:47:29.548
17, 23658.81, 28126.34, -13538.41, -19922.04, -13804.64, -6444.03, 104359.42, 36631.33, 0.000, 0.000, 0.000, 18:47:29.548
18, 23657.29, 28113.82, -13533.02, -19884.80, -13733.69, -6398.50, 104343.20, 36599.48, 0.000, 0.000, 0.000, 18:47:29.549
19, 23669.45, 28136.40, -13406.06, -19946.45, -13755.26, -6444.86, 104378.09, 36659.56, 0.000, 0.000, 0.000, 18:47:29.549
20, 23677.72, 28159.96, -13152.48, -20015.63, -13839.39, -6515.29, 104415.77, 36723.20, 0.000, 0.000, 0.000, 18:47:29.549
21, 23670.90, 28150.75, -13352.37, -19995.06, -13858.15, -6504.74, 104406.88, 36702.10, 0.000, 0.000, 0.000, 18:47:29.549
22, 23661.42, 28122.27, -13523.90, -19904.36, -13783.52, -6420.85, 104367.40, 36624.07, 0.000, 0.000, 0.000, 18:47:29.549
23, 23660.75, 28110.07, -13504.21, -19861.83, -13709.69, -6368.57, 104351.38, 36592.17, 0.000, 0.000, 0.000, 18:47:29.549
24, 23671.93, 28131.86, -13479.38, -19924.17, -13727.97, -6410.57, 104385.39, 36651.41, 0.000, 0.000, 0.000, 18:47:29.549
25, 23678.74, 28154.37, -13211.94, -19999.51, -13805.55, -6491.04, 104421.89, 36714.24, 0.000, 0.000, 0.000, 18:47:29.549
26, 23672.80, 28146.52, -13412.37, -19989.68, -13832.58, -6491.10, 104414.49, 36694.99, -0.022, 0.988, 0.046, 18:47:29.549
27, 23660.24, 28115.68, -13535.90, -19913.86, -13775.42, -6420.00, 104372.52, 36614.57, 0.000, 0.000, 0.000, 18:47:29.549
28, 23658.94, 28103.14, -13513.28, -19870.92, -13707.39, -6374.43, 104356.07, 36581.89, 0.000, 0.000, 0.000, 18:47:29.550
29, 23668.31, 28123.34, -13435.95, -19931.29, -13736.11, -6434.04, 104388.30, 36639.16, 0.000, 0.000, 0.000, 18:47:29.550
30, 23675.88, 28146.86, -13159.83, -20007.76, -13829.63, -6525.73, 104425.85, 36703.38, 0.000, 0.000, 0.000, 18:47:29.550
31, 23669.92, 28138.99, -13306.08, -19994.44, -13862.37, -6535.07, 104418.31, 36684.46, 0.000, 0.000, 0.000, 18:47:29.550
32, 23659.66, 28110.02, -13531.70, -19911.27, -13799.90, -6469.18, 104378.42, 36605.99, 0.000, 0.000, 0.000, 18:47:29.550
33, 23660.06, 28099.03, -13527.59, -19869.61, -13731.10, -6427.06, 104363.40, 36574.47, 0.000, 0.000, 0.000, 18:47:29.551
34, 23670.63, 28120.15, -13442.81, -19926.85, -13753.45, -6486.50, 104396.57, 36632.63, 0.000, 0.000, 0.000, 18:47:29.551
35, 23679.39, 28144.64, -13162.03, -19999.98, -13841.63, -6573.25, 104435.41, 36698.05, 0.000, 0.000, 0.000, 18:47:29.551
36, 23673.89, 28137.36, -13320.79, -19987.51, -13872.07, -6582.50, 104428.60, 36680.02, -0.024, 0.982, 0.046, 18:47:29.551
37, 23663.66, 28108.41, -13537.13, -19907.67, -13809.85, -6511.78, 104388.68, 36601.47, 0.000, 0.000, 0.000, 18:47:29.551
38, 23662.29, 28095.09, -13530.11, -19872.38, -13737.99, -6465.53, 104371.18, 36567.21, 0.000, 0.000, 0.000, 18:47:29.551
39, 23671.86, 28114.56, -13432.19, -19932.26, -13755.20, -6515.33, 104402.60, 36623.31, 0.000, 0.000, 0.000, 18:47:29.551
40, 23680.42, 28138.48, -13161.51, -20001.48, -13834.10, -6591.46, 104440.89, 36688.38, 0.000, 0.000, 0.000, 18:47:29.551
41, 23678.03, 28134.32, -13330.11, -19987.64, -13865.19, -6589.20, 104437.49, 36674.05, 0.000, 0.000, 0.000, 18:47:29.551
42, 23666.27, 28104.21, -13535.19, -19908.52, -13801.17, -6505.50, 104396.48, 36594.50, 0.000, 0.000, 0.000, 18:47:29.551
43, 23663.99, 28090.58, -13520.21, -19867.66, -13722.21, -6444.41, 104378.59, 36559.61, 0.000, 0.000, 0.000, 18:47:29.551
44, 23676.31, 28113.17, -13506.20, -19920.32, -13728.49, -6473.82, 104413.22, 36618.79, 0.000, 0.000, 0.000, 18:47:29.552
45, 23683.48, 28136.20, -13242.42, -19988.61, -13802.72, -6540.92, 104450.62, 36683.30, -0.024, 0.990, 0.046, 18:47:29.552
46, 23675.59, 28127.41, -13363.19, -19977.74, -13830.83, -6542.49, 104442.86, 36664.77, 0.000, 0.000, 0.000, 18:47:29.552
47, 23665.09, 28099.20, -13520.77, -19896.87, -13763.98, -6475.41, 104403.79, 36587.26, 0.000, 0.000, 0.000, 18:47:29.552
48, 23663.57, 28086.55, -13502.06, -19854.63, -13692.39, -6430.66, 104386.76, 36553.01, 0.000, 0.000, 0.000, 18:47:29.553
49, 23670.47, 28104.32, -13463.39, -19919.07, -13720.89, -6480.37, 104416.26, 36607.02, 0.000, 0.000, 0.000, 18:47:29.553
50, 23677.89, 28128.33, -13177.07, -19993.79, -13804.35, -6556.84, 104454.52, 36672.64, 0.000, 0.000, 0.000, 18:47:29.553
51, 23672.73, 28122.03, -13346.16, -19985.39, -13843.93, -6570.83, 104449.32, 36656.97, 0.000, 0.000, 0.000, 18:47:29.553
52, 23661.00, 28092.12, -13534.74, -19906.93, -13789.44, -6504.27, 104408.55, 36577.76, 0.000, 0.000, 0.000, 18:47:29.554
53, 23659.01, 28078.46, -13518.27, -19865.09, -13722.34, -6456.30, 104390.45, 36541.99, 0.000, 0.000, 0.000, 18:47:29.554
54, 23670.52, 28100.17, -13436.08, -19926.04, -13745.74, -6507.93, 104424.02, 36599.50, 0.000, 0.000, 0.000, 18:47:29.554
55, 23678.61, 28124.17, -13159.63, -19999.54, -13836.42, -6591.95, 104462.57, 36665.20, -0.024, 0.992, 0.038, 18:47:29.554
56, 23675.19, 28119.52, -13317.77, -19985.88, -13869.82, -6601.36, 104459.06, 36651.50, 0.000, 0.000, 0.000, 18:47:29.554
57, 23662.38, 28088.50, -13529.82, -19903.60, -13806.43, -6527.49, 104417.24, 36571.32, 0.000, 0.000, 0.000, 18:47:29.554
58, 23659.28, 28073.77, -13511.23, -19854.54, -13724.69, -6472.01, 104397.91, 36534.15, 0.000, 0.000, 0.000, 18:47:29.554
59, 23669.69, 28094.40, -13438.90, -19915.67, -13746.41, -6520.43, 104430.16, 36590.27, 0.000, 0.000, 0.000, 18:47:29.555
60, 23675.48, 28116.37, -13160.19, -19999.67, -13841.67, -6605.86, 104466.71, 36654.31, 0.000, 0.000, 0.000, 18:47:29.555
61, 23671.59, 28111.86, -13305.17, -19991.82, -13880.19, -6611.06, 104463.47, 36641.14, 0.000, 0.000, 0.000, 18:47:29.555
62, 23659.46, 28082.04, -13528.62, -19908.63, -13816.64, -6528.43, 104422.85, 36562.22, 0.000, 0.000, 0.000, 18:47:29.555
63, 23656.28, 28067.33, -13520.57, -19869.74, -13742.12, -6471.52, 104403.45, 36524.70, 0.000, 0.000, 0.000, 18:47:29.555
64, 23667.17, 28088.36, -13417.75, -19934.43, -13766.15, -6517.90, 104436.02, 36581.11, 0.000, 0.000, 0.000, 18:47:29.555
65, 23675.86, 28113.31, -13152.41, -20008.41, -13852.69, -6590.21, 104475.54, 36648.28, -0.028, 0.990, 0.040, 18:47:29.555
66, 23669.24, 28106.31, -13300.09, -20001.64, -13881.86, -6576.75, 104469.75, 36632.92, 0.000, 0.000, 0.000, 18:47:29.555
67, 23657.22, 28076.20, -13533.78, -19925.30, -13814.96, -6489.25, 104428.84, 36553.62, 0.000, 0.000, 0.000, 18:47:29.555
68, 23655.05, 28061.65, -13526.58, -19882.35, -13734.90, -6424.94, 104409.48, 36515.89, 0.000, 0.000, 0.000, 18:47:29.556
69, 23666.67, 28082.71, -13461.16, -19934.11, -13743.46, -6468.97, 104442.14, 36571.95, 0.000, 0.000, 0.000, 18:47:29.556
70, 23674.83, 28106.83, -13179.97, -20007.09, -13823.03, -6558.00, 104480.74, 36638.22, 0.000, 0.000, 0.000, 18:47:29.556
71, 23672.08, 28103.16, -13346.14, -19993.97, -13855.22, -6579.03, 104478.45, 36626.51, 0.000, 0.000, 0.000, 18:47:29.556
72, 23659.72, 28072.63, -13519.92, -19902.82, -13788.83, -6512.18, 104437.07, 36546.78, 0.000, 0.000, 0.000, 18:47:29.556
73, 23657.04, 28057.54, -13494.26, -19851.46, -13709.31, -6463.52, 104416.93, 36507.95, 0.000, 0.000, 0.000, 18:47:29.556
74, 23668.57, 28078.55, -13468.92, -19908.70, -13728.55, -6523.29, 104449.32, 36563.56, 0.000, 0.000, 0.000, 18:47:29.556
75, 23676.26, 28102.49, -13197.12, -19981.07, -13820.66, -6620.34, 104487.79, 36629.90, -0.026, 0.992, 0.042, 18:47:29.556
76, 23671.30, 28097.51, -13377.34, -19970.59, -13860.61, -6636.21, 104484.34, 36617.36, 0.000, 0.000, 0.000, 18:47:29.557
77, 23658.29, 28067.08, -13531.59, -19891.20, -13807.70, -6568.66, 104443.10, 36537.86, 0.000, 0.000, 0.000, 18:47:29.557
78, 23655.77, 28052.00, -13507.43, -19846.58, -13738.81, -6521.05, 104422.97, 36498.70, 0.000, 0.000, 0.000, 18:47:29.557
79, 23665.98, 28071.31, -13433.69, -19904.45, -13753.12, -6567.14, 104453.61, 36552.57, 0.000, 0.000, 0.000, 18:47:29.557
80, 23672.31, 28093.77, -13155.50, -19978.97, -13833.58, -6647.39, 104490.71, 36617.95, 0.000, 0.000, 0.000, 18:47:29.557
81, 23668.87, 28090.02, -13341.87, -19965.83, -13865.66, -6651.19, 104488.37, 36606.97, 0.000, 0.000, 0.000, 18:47:29.557
82, 23658.45, 28061.74, -13526.54, -19884.40, -13806.94, -6574.01, 104449.27, 36529.81, 0.000, 0.000, 0.000, 18:47:29.557
83, 23654.98, 28045.76, -13507.34, -19839.12, -13729.60, -6520.12, 104428.20, 36489.58, 0.000, 0.000, 0.000, 18:47:29.557
84, 23666.07, 28066.10, -13474.23, -19895.64, -13740.33, -6561.44, 104459.98, 36544.27, -0.024, 0.988, 0.046, 18:47:29.557
85, 23676.73, 28092.90, -13193.05, -19969.29, -13820.02, -6632.75, 104501.53, 36614.08, 0.000, 0.000, 0.000, 18:47:29.557
86, 23673.40, 28089.19, -13352.95, -19962.81, -13854.62, -6628.95, 104499.59, 36603.73, 0.000, 0.000, 0.000, 18:47:29.558
87, 23660.26, 28058.21, -13525.60, -19882.77, -13792.17, -6554.31, 104457.86, 36523.82, 0.000, 0.000, 0.000, 18:47:29.558
88, 23656.82, 28041.85, -13498.20, -19838.22, -13708.79, -6498.28, 104436.31, 36482.94, 0.000, 0.000, 0.000, 18:47:29.558
89, 23666.03, 28060.45, -13489.39, -19899.51, -13709.93, -6537.30, 104466.20, 36535.78, 0.000, 0.000, 0.000, 18:47:29.558
90, 23673.98, 28085.17, -13213.37, -19983.11, -13793.06, -6621.26, 104505.71, 36603.80, 0.000, 0.000, 0.000, 18:47:29.558
91, 23668.75, 28080.21, -13327.07, -19978.23, -13835.26, -6637.60, 104502.56, 36592.42, 0.000, 0.000, 0.000, 18:47:29.559
92, 23656.15, 28049.99, -13526.74, -19904.76, -13785.30, -6572.37, 104461.63, 36513.59, 0.000, 0.000, 0.000, 18:47:29.559
93, 23653.89, 28035.23, -13515.21, -19865.00, -13720.30, -6531.05, 104441.52, 36473.87, 0.000, 0.000, 0.000, 18:47:29.559
94, 23662.92, 28053.63, -13397.12, -19922.13, -13740.29, -6589.05, 104471.00, 36526.01, -0.030, 0.988, 0.042, 18:47:29.559
95, 23671.50, 28078.93, -13138.85, -20000.03, -13831.08, -6683.15, 104511.21, 36594.90, 0.000, 0.000, 0.000, 18:47:29.559
96, 23667.95, 28075.96, -13262.45, -19993.12, -13871.36, -6705.17, 104510.00, 36586.03, 0.000, 0.000, 0.000, 18:47:29.560
97, 23657.58, 28048.11, -13516.26, -19909.23, -13811.05, -6635.54, 104471.52, 36509.67, 0.000, 0.000, 0.000, 18:47:29.560
98, 23656.04, 28033.65, -13517.35, -19857.04, -13733.63, -6581.60, 104451.73, 36469.80, 0.000, 0.000, 0.000, 18:47:29.560
99, 23665.04, 28051.68, -13431.41, -19911.69, -13751.13, -6630.15, 104480.84, 36521.27, 0.000, 0.000, 0.000, 18:47:29.560
100, 23673.63, 28076.56, -13155.19, -19989.41, -13840.62, -6715.96, 104520.64, 36589.89, 0.000, 0.000, 0.000, 18:47:29.561
101, 23667.81, 28071.02, -13283.40, -19982.26, -13877.73, -6714.84, 104517.11, 36578.79, 0.000, 0.000, 0.000, 18:47:29.561
102, 23656.17, 28041.89, -13526.96, -19902.57, -13823.44, -6643.23, 104477.17, 36500.91, 0.000, 0.000, 0.000, 18:47:29.561
103, 23653.96, 28026.83, -13522.56, -19856.33, -13745.21, -6592.24, 104456.76, 36460.10, 0.000, 0.000, 0.000, 18:47:29.561
104, 23664.86, 28047.13, -13453.00, -19910.22, -13754.91, -6637.44, 104487.90, 36513.68, -0.032, 0.986, 0.042, 18:47:29.561
105, 23671.73, 28070.77, -13168.08, -19983.33, -13841.34, -6721.79, 104526.50, 36581.24, 0.000, 0.000, 0.000, 18:47:30.026
106, 23667.17, 28066.59, -13274.83, -19976.89, -13883.67, -6729.93, 104524.29, 36571.88, 0.000, 0.000, 0.000, 18:47:30.026
107, 23654.74, 28036.26, -13516.90, -19892.63, -13817.62, -6642.45, 104483.25, 36493.07, 0.000, 0.000, 0.000, 18:47:30.026
108, 23652.82, 28021.26, -13512.23, -19840.37, -13731.75, -6580.40, 104462.57, 36451.96, 0.000, 0.000, 0.000, 18:47:30.027
109, 23662.49, 28039.73, -13397.50, -19901.84, -13746.79, -6628.45, 104491.92, 36503.37, 0.000, 0.000, 0.000, 18:47:30.027
110, 23672.31, 28065.59, -13141.55, -19983.20, -13833.25, -6714.29, 104532.78, 36573.13, 0.000, 0.000, 0.000, 18:47:30.028
111, 23670.23, 28063.69, -13299.20, -19978.37, -13868.99, -6717.08, 104532.87, 36566.29, 0.000, 0.000, 0.000, 18:47:30.028
112, 23657.18, 28032.93, -13538.09, -19901.39, -13811.41, -6637.86, 104491.45, 36487.10, 0.000, 0.000, 0.000, 18:47:30.029
113, 23653.73, 28016.05, -13529.31, -19860.66, -13731.15, -6580.53, 104468.90, 36443.85, 0.000, 0.000, 0.000, 18:47:30.030
114, 23666.54, 28037.38, -13406.33, -19918.06, -13737.52, -6625.73, 104501.04, 36497.67, -0.026, 0.990, 0.040, 18:47:30.031
115, 23677.60, 28064.94, -13147.38, -20001.10, -13824.53, -6720.52, 104543.71, 36569.44, 0.000, 0.000, 0.000, 18:47:30.031
116, 23672.44, 28060.56, -13249.42, -20000.54, -13866.44, -6744.01, 104541.41, 36560.68, 0.000, 0.000, 0.000, 18:47:30.031
117, 23661.09, 28031.77, -13522.56, -19924.70, -13813.78, -6682.46, 104501.84, 36483.37, 0.000, 0.000, 0.000, 18:47:30.032
118, 23658.14, 28015.38, -13534.52, -19875.39, -13737.00, -6634.02, 104479.67, 36440.02, 0.000, 0.000, 0.000, 18:47:30.032
119, 23667.77, 28033.24, -13405.39, -19927.43, -13754.39, -6692.29, 104508.02, 36490.14, 0.000, 0.000, 0.000, 18:47:30.032
120, 23677.83, 28059.39, -13157.38, -20001.30, -13851.38, -6792.16, 104549.23, 36560.68, 0.000, 0.000, 0.000, 18:47:30.033
121, 23676.84, 28058.95, -13244.50, -19994.51, -13895.05, -6816.88, 104550.88, 36556.05, 0.000, 0.000, 0.000, 18:47:30.033
122, 23663.59, 28027.66, -13516.39, -19911.54, -13835.28, -6747.79, 104509.09, 36476.55, 0.000, 0.000, 0.000, 18:47:30.033
123, 23660.30, 28010.45, -13541.33, -19861.78, -13758.21, -6690.44, 104485.88, 36432.14, 0.000, 0.000, 0.000, 18:47:30.034
124, 23671.97, 28030.07, -13405.50, -19917.88, -13768.58, -6738.36, 104515.88, 36483.59, -0.026, 0.994, 0.038, 18:47:30.036
125, 23681.83, 28056.11, -13147.90, -19989.05, -13848.60, -6819.49, 104556.95, 36554.02, 0.000, 0.000, 0.000, 18:47:30.036
126, 23677.18, 28052.64, -13259.21, -19982.39, -13886.04, -6822.71, 104555.84, 36546.80, 0.000, 0.000, 0.000, 18:47:30.036
127, 23664.53, 28023.03, -13516.23, -19898.39, -13824.24, -6738.13, 104515.50, 36468.90, 0.000, 0.000, 0.000, 18:47:30.037
128, 23661.94, 28006.62, -13514.74, -19841.33, -13738.32, -6663.81, 104492.97, 36425.07, 0.000, 0.000, 0.000, 18:47:30.038
129, 23670.83, 28024.13, -13468.85, -19891.91, -13743.24, -6688.56, 104520.71, 36474.31, 0.000, 0.000, 0.000, 18:47:30.038
130, 23679.62, 28050.25, -13185.29, -19973.76, -13827.71, -6764.06, 104561.73, 36544.79, 0.000, 0.000, 0.000, 18:47:30.038
131, 23676.60, 28048.71, -13348.39, -19971.93, -13868.90, -6767.15, 104562.82, 36539.87, 0.000, 0.000, 0.000, 18:47:30.038
132, 23665.02, 28020.06, -13533.00, -19893.10, -13815.77, -6695.67, 104523.62, 36463.00, 0.000, 0.000, 0.000, 18:47:30.038
133, 23661.42, 28002.96, -13504.61, -19842.16, -13733.69, -6633.46, 104500.33, 36417.79, -0.030, 0.994, 0.040, 18:47:30.038
134, 23671.37, 28021.40, -13461.16, -19903.58, -13744.58, -6666.99, 104529.07, 36467.38, 0.000, 0.000, 0.000, 18:47:30.038
135, 23681.38, 28048.55, -13182.99, -19991.49, -13835.42, -6752.17, 104571.25, 36539.18, 0.000, 0.000, 0.000, 18:47:30.038
136, 23678.81, 28047.68, -13309.28, -19994.98, -13880.90, -6765.81, 104573.10, 36535.27, 0.000, 0.000, 0.000, 18:47:30.039
137, 23664.89, 28016.86, -13524.62, -19915.11, -13819.88, -6683.55, 104532.02, 36456.66, 0.000, 0.000, 0.000, 18:47:30.039
138, 23658.61, 27997.48, -13507.38, -19864.15, -13731.77, -6617.14, 104506.31, 36408.96, 0.000, 0.000, 0.000, 18:47:30.039
139, 23669.20, 28016.73, -13463.17, -19917.42, -13740.44, -6655.83, 104535.82, 36459.43, 0.000, 0.000, 0.000, 18:47:30.039
140, 23678.01, 28042.83, -13183.39, -19998.98, -13827.48, -6743.32, 104576.97, 36530.26, 0.000, 0.000, 0.000, 18:47:30.039
141, 23674.54, 28041.34, -13249.60, -20001.32, -13876.66, -6753.78, 104577.98, 36525.88, 0.000, 0.000, 0.000, 18:47:30.039
142, 23661.62, 28011.29, -13525.87, -19925.35, -13828.40, -6674.41, 104537.49, 36448.00, 0.000, 0.000, 0.000, 18:47:30.039
143, 23656.62, 27992.41, -13534.47, -19872.13, -13747.46, -6603.42, 104512.17, 36400.46, -0.030, 0.984, 0.040, 18:47:30.040
144, 23667.30, 28010.78, -13404.16, -19927.54, -13758.88, -6633.44, 104540.54, 36449.50, 0.000, 0.000, 0.000, 18:47:30.040
145, 23676.15, 28036.26, -13167.46, -20019.34, -13857.43, -6716.97, 104581.13, 36519.96, 0.000, 0.000, 0.000, 18:47:30.040
146, 23672.26, 28033.58, -13195.64, -20020.55, -13907.77, -6725.19, 104580.91, 36514.79, 0.000, 0.000, 0.000, 18:47:30.040
147, 23662.96, 28006.53, -13481.30, -19946.67, -13856.63, -6641.19, 104543.24, 36439.89, 0.000, 0.000, 0.000, 18:47:30.040
148, 23659.41, 27988.43, -13568.00, -19897.50, -13780.05, -6572.75, 104518.67, 36392.84, 0.000, 0.000, 0.000, 18:47:30.040
149, 23669.13, 28005.42, -13382.64, -19946.72, -13786.44, -6598.93, 104545.50, 36439.98, 0.000, 0.000, 0.000, 18:47:30.040
150, 23680.31, 28032.91, -13169.00, -20024.39, -13865.05, -6669.00, 104588.15, 36512.49, 0.000, 0.000, 0.000, 18:47:30.040
151, 23677.13, 28031.17, -13215.78, -20025.80, -13907.37, -6667.57, 104589.13, 36508.58, 0.000, 0.000, 0.000, 18:47:30.041
152, 23664.71, 28001.75, -13495.58, -19948.30, -13855.35, -6574.30, 104549.14, 36431.42, 0.000, 0.000, 0.000, 18:47:30.041
153, 23659.54, 27982.33, -13555.66, -19888.89, -13767.53, -6491.13, 104523.26, 36382.54, -0.026, 0.990, 0.038, 18:47:30.041
154, 23670.77, 28001.04, -13451.21, -19931.56, -13764.47, -6508.65, 104551.80, 36431.13, 0.000, 0.000, 0.000, 18:47:30.041
155, 23679.37, 28026.25, -13174.48, -20010.33, -13851.69, -6583.73, 104592.10, 36501.47, 0.000, 0.000, 0.000, 18:47:30.041
156, 23677.16, 28025.76, -13261.20, -20007.92, -13898.90, -6587.55, 104594.49, 36499.32, 0.000, 0.000, 0.000, 18:47:30.041
157, 23665.87, 27997.01, -13526.18, -19922.87, -13844.47, -6503.33, 104555.27, 36422.93, 0.000, 0.000, 0.000, 18:47:30.041
158, 23660.46, 27976.63, -13533.27, -19868.26, -13762.57, -6439.52, 104528.24, 36372.79, 0.000, 0.000, 0.000, 18:47:30.041
159, 23671.50, 27994.80, -13463.89, -19921.04, -13766.15, -6474.23, 104556.30, 36420.78, 0.000, 0.000, 0.000, 18:47:30.041
160, 23682.77, 28023.03, -13179.28, -20004.45, -13849.74, -6549.24, 104599.61, 36494.34, 0.000, 0.000, 0.000, 18:47:30.042
161, 23680.33, 28022.85, -13296.92, -20003.22, -13888.39, -6555.68, 104602.49, 36493.09, 0.000, 0.000, 0.000, 18:47:30.042
162, 23668.19, 27993.86, -13537.13, -19925.66, -13829.56, -6481.38, 104563.18, 36416.76, 0.000, 0.000, 0.000, 18:47:30.042
163, 23662.79, 27973.95, -13526.67, -19875.66, -13744.80, -6414.03, 104536.52, 36366.93, -0.028, 0.994, 0.040, 18:47:30.042
164, 23671.53, 27989.81, -13457.34, -19927.61, -13744.96, -6444.41, 104561.88, 36412.13, 0.000, 0.000, 0.000, 18:47:30.042
165, 23680.24, 28015.29, -13180.44, -20012.32, -13831.80, -6529.75, 104602.45, 36482.92, 0.000, 0.000, 0.000, 18:47:30.042
166, 23679.84, 28017.08, -13277.74, -20018.22, -13884.84, -6545.33, 104607.45, 36484.28, 0.000, 0.000, 0.000, 18:47:30.043
167, 23668.64, 27988.72, -13552.26, -19943.88, -13840.65, -6482.32, 104568.81, 36409.00, 0.000, 0.000, 0.000, 18:47:30.043
168, 23664.53, 27970.03, -13558.28, -19892.25, -13768.36, -6425.48, 104543.24, 36360.03, 0.000, 0.000, 0.000, 18:47:30.043
169, 23673.98, 27986.80, -13427.94, -19938.40, -13763.33, -6450.58, 104569.46, 36405.71, 0.000, 0.000, 0.000, 18:47:30.043
170, 23682.10, 28011.83, -13170.12, -20020.28, -13845.45, -6534.20, 104609.65, 36476.23, 0.000, 0.000, 0.000, 18:47:30.043
171, 23678.68, 28010.78, -13225.88, -20025.51, -13897.93, -6550.33, 104611.81, 36474.78, 0.000, 0.000, 0.000, 18:47:30.043
172, 23669.83, 27985.23, -13511.20, -19949.80, -13851.42, -6476.62, 104575.98, 36402.30, 0.000, 0.000, 0.000, 18:47:30.043
173, 23665.45, 27966.48, -13561.16, -19896.54, -13765.63, -6409.16, 104550.35, 36352.96, -0.028, 0.988, 0.040, 18:47:30.044
174, 23676.26, 27984.36, -13444.06, -19943.57, -13766.57, -6432.41, 104577.69, 36399.66, 0.000, 0.000, 0.000, 18:47:30.044
175, 23685.05, 28010.00, -13175.15, -20018.91, -13846.66, -6504.67, 104618.56, 36471.18, 0.000, 0.000, 0.000, 18:47:30.044
176, 23682.63, 28009.95, -13255.57, -20021.82, -13894.07, -6523.33, 104621.92, 36471.41, 0.000, 0.000, 0.000, 18:47:30.044
177, 23671.10, 27981.81, -13533.35, -19941.09, -13839.78, -6453.15, 104583.59, 36396.55, 0.000, 0.000, 0.000, 18:47:30.044
178, 23664.98, 27961.12, -13548.22, -19880.65, -13758.79, -6388.40, 104555.84, 36345.12, 0.000, 0.000, 0.000, 18:47:30.044
179, 23672.87, 27976.00, -13489.93, -19921.73, -13759.26, -6416.29, 104579.98, 36388.46, 0.000, 0.000, 0.000, 18:47:30.044
180, 23685.99, 28006.09, -13197.86, -20001.59, -13846.21, -6506.75, 104625.36, 36464.46, 0.000, 0.000, 0.000, 18:47:30.044
181, 23684.89, 28007.70, -13274.63, -20006.11, -13898.90, -6532.21, 104630.41, 36466.64, 0.000, 0.000, 0.000, 18:47:30.045
182, 23669.36, 27975.64, -13540.06, -19930.58, -13853.07, -6466.23, 104588.19, 36388.10, -0.026, 0.984, 0.038, 18:47:30.045
183, 23665.22, 27957.11, -13533.47, -19872.27, -13766.46, -6394.66, 104562.41, 36338.32, 0.000, 0.000, 0.000, 18:47:30.045
184, 23676.11, 27975.13, -13486.06, -19919.43, -13761.99, -6416.38, 104589.71, 36384.59, 0.000, 0.000, 0.000, 18:47:30.045
185, 23685.20, 28001.44, -13197.88, -20001.75, -13846.08, -6498.57, 104631.40, 36456.86, 0.000, 0.000, 0.000, 18:47:30.045
186, 23680.46, 27999.49, -13252.97, -20009.15, -13897.58, -6518.24, 104633.16, 36455.92, 0.000, 0.000, 0.000, 18:47:30.045
187, 23669.00, 27971.26, -13530.16, -19928.14, -13843.93, -6449.89, 104594.76, 36381.13, 0.000, 0.000, 0.000, 18:47:30.045
188, 23665.22, 27952.58, -13543.35, -19873.14, -13761.23, -6385.85, 104568.85, 36330.68, 0.000, 0.000, 0.000, 18:47:30.045
189, 23675.75, 27969.65, -13459.35, -19918.53, -13763.24, -6416.20, 104595.12, 36375.32, 0.000, 0.000, 0.000, 18:47:30.046
190, 23687.06, 27997.66, -13184.73, -20000.29, -13847.24, -6492.42, 104638.33, 36449.19, 0.000, 0.000, 0.000, 18:47:30.046
191, 23682.92, 27996.16, -13248.75, -20006.64, -13894.78, -6501.23, 104640.52, 36448.95, 0.000, 0.000, 0.000, 18:47:30.046
192, 23672.64, 27969.23, -13529.94, -19930.58, -13843.28, -6435.27, 104603.55, 36375.50, -0.032, 0.990, 0.042, 18:47:30.046
193, 23668.91, 27950.27, -13540.91, -19868.51, -13754.68, -6361.22, 104577.41, 36324.55, 0.000, 0.000, 0.000, 18:47:30.046
194, 23678.25, 27965.94, -13483.15, -19912.77, -13749.45, -6386.43, 104602.16, 36367.76, 0.000, 0.000, 0.000, 18:47:30.046
195, 23687.55, 27992.01, -13199.87, -20000.59, -13831.21, -6467.54, 104643.33, 36439.89, 0.000, 0.000, 0.000, 18:47:30.046
196, 23685.16, 27992.41, -13261.00, -20010.44, -13882.40, -6482.50, 104647.58, 36441.95, 0.000, 0.000, 0.000, 18:47:30.047
197, 23674.88, 27965.85, -13540.40, -19937.69, -13835.35, -6412.85, 104610.98, 36368.84, 0.000, 0.000, 0.000, 18:47:30.047
198, 23668.31, 27944.24, -13547.88, -19878.57, -13750.26, -6349.26, 104581.95, 36314.74, 0.000, 0.000, 0.000, 18:47:30.047
199, 23677.09, 27959.51, -13496.81, -19918.94, -13744.04, -6385.38, 104606.23, 36357.10, 0.000, 0.000, 0.000, 18:47:30.047
200, 23687.78, 27987.38, -13203.02, -19997.41, -13825.63, -6475.84, 104649.32, 36431.18, 0.000, 0.000, 0.000, 18:47:30.047
201, 23685.45, 27988.21, -13291.69, -19999.60, -13875.74, -6496.85, 104654.06, 36433.90, 0.000, 0.000, 0.000, 18:47:30.047
202, 23674.59, 27961.07, -13546.10, -19920.01, -13834.39, -6436.68, 104617.09, 36360.65, -0.032, 0.990, 0.044, 18:47:30.047
203, 23668.11, 27939.50, -13529.06, -19856.64, -13753.56, -6371.74, 104588.05, 36306.52, 0.000, 0.000, 0.000, 18:47:30.047
204, 23676.11, 27953.83, -13499.09, -19901.26, -13753.23, -6408.49, 104611.28, 36347.69, 0.000, 0.000, 0.000, 18:47:30.048
205, 23688.85, 27983.94, -13210.82, -19987.42, -13838.37, -6502.32, 104656.70, 36424.31, 0.000, 0.000, 0.000, 18:47:30.048
206, 23685.88, 27985.10, -13245.20, -20007.81, -13893.17, -6531.72, 104661.95, 36428.18, 0.000, 0.000, 0.000, 18:47:30.048
207, 23675.21, 27959.01, -13531.95, -19939.77, -13847.15, -6463.52, 104625.95, 36356.52, 0.000, 0.000, 0.000, 18:47:30.048
208, 23668.84, 27938.25, -13549.11, -19883.15, -13763.71, -6397.81, 104597.63, 36303.01, 0.000, 0.000, 0.000, 18:47:30.048
209, 23677.60, 27954.01, -13488.94, -19924.28, -13756.89, -6428.05, 104622.27, 36345.48, 0.000, 0.000, 0.000, 18:47:30.048
210, 23688.74, 27982.86, -13206.86, -20005.57, -13839.64, -6514.82, 104666.60, 36421.18, 0.000, 0.000, 0.000, 18:47:30.048
211, 23684.82, 27983.18, -13259.43, -20015.07, -13894.42, -6542.98, 104671.05, 36424.54, 0.000, 0.000, 0.000, 18:47:30.048
212, 23672.11, 27954.86, -13540.22, -19936.66, -13845.90, -6474.56, 104632.94, 36350.66, -0.028, 0.986, 0.042, 18:47:30.049
213, 23666.54, 27934.23, -13555.91, -19873.58, -13760.81, -6403.73, 104604.80, 36297.06, 0.000, 0.000, 0.000, 18:47:30.049
214, 23675.59, 27949.76, -13492.97, -19912.63, -13750.75, -6414.66, 104629.00, 36338.97, 0.000, 0.000, 0.000, 18:47:30.049
215, 23686.21, 27977.63, -13207.04, -19994.98, -13834.54, -6486.68, 104672.16, 36413.54, 0.000, 0.000, 0.000, 18:47:30.049
216, 23684.64, 27979.78, -13239.85, -20002.96, -13889.02, -6511.26, 104678.52, 36418.95, 0.000, 0.000, 0.000, 18:47:30.049
217, 23671.95, 27951.39, -13526.98, -19927.90, -13843.64, -6444.68, 104640.23, 36345.03, 0.000, 0.000, 0.000, 18:47:30.049
218, 23666.85, 27930.87, -13554.90, -19866.43, -13759.24, -6372.50, 104611.91, 36291.14, 0.000, 0.000, 0.000, 18:47:30.049
219, 23677.16, 27946.92, -13506.15, -19901.79, -13746.61, -6384.22, 104636.65, 36333.27, 0.000, 0.000, 0.000, 18:47:30.049
220, 23686.21, 27973.47, -13212.50, -19982.37, -13825.34, -6461.13, 104678.49, 36406.48, 0.000, 0.000, 0.000, 18:47:30.049
221, 23683.77, 27975.40, -13273.45, -19989.16, -13873.01, -6476.33, 104684.59, 36411.97, 0.000, 0.000, 0.000, 18:47:30.049
222, 23672.53, 27948.60, -13532.97, -19911.07, -13822.05, -6400.24, 104648.16, 36340.05, -0.026, 0.996, 0.044, 18:47:30.050
223, 23664.78, 27925.80, -13523.90, -19845.78, -13743.91, -6327.60, 104617.59, 36283.59, 0.000, 0.000, 0.000, 18:47:30.050
224, 23674.68, 27942.09, -13522.78, -19890.08, -13748.09, -6363.97, 104642.52, 36325.70, 0.000, 0.000, 0.000, 18:47:30.050
225, 23685.56, 27970.90, -13255.63, -19977.81, -13835.77, -6453.15, 104686.67, 36401.74, 0.000, 0.000, 0.000, 18:47:30.506
226, 23684.09, 27974.37, -13259.12, -19994.98, -13897.00, -6478.54, 104694.43, 36409.61, 0.000, 0.000, 0.000, 18:47:30.507
227, 23670.74, 27945.89, -13543.08, -19922.20, -13851.29, -6409.45, 104656.45, 36336.38, 0.000, 0.000, 0.000, 18:47:30.507
228, 23666.56, 27926.78, -13558.66, -19868.93, -13775.54, -6352.39, 104629.49, 36283.59, 0.000, 0.000, 0.000, 18:47:30.507
229, 23674.36, 27940.93, -13471.89, -19910.38, -13769.84, -6378.32, 104652.18, 36323.21, 0.000, 0.000, 0.000, 18:47:30.507
230, 23683.39, 27967.57, -13196.71, -19994.80, -13853.30, -6458.89, 104694.36, 36397.29, 0.000, 0.000, 0.000, 18:47:30.507
231, 23680.60, 27969.21, -13224.66, -20003.63, -13907.10, -6482.83, 104700.44, 36403.66, -0.022, 0.994, 0.044, 18:47:30.507
232, 23670.72, 27943.81, -13511.58, -19928.97, -13858.73, -6422.15, 104665.57, 36333.63, 0.000, 0.000, 0.000, 18:47:30.507
233, 23667.23, 27925.13, -13562.32, -19868.78, -13773.39, -6361.62, 104638.98, 36281.06, 0.000, 0.000, 0.000, 18:47:30.507
234, 23675.64, 27939.37, -13469.85, -19909.32, -13768.85, -6386.21, 104661.64, 36320.55, 0.000, 0.000, 0.000, 18:47:30.507
235, 23686.23, 27967.42, -13190.43, -19991.04, -13850.37, -6463.59, 104705.27, 36396.08, 0.000, 0.000, 0.000, 18:47:30.507
236, 23685.14, 27970.77, -13242.63, -20003.02, -13900.82, -6485.78, 104713.41, 36404.66, 0.000, 0.000, 0.000, 18:47:30.508
237, 23672.89, 27943.01, -13526.54, -19928.52, -13850.91, -6417.68, 104676.26, 36332.45, 0.000, 0.000, 0.000, 18:47:30.508
238, 23667.43, 27922.09, -13547.19, -19862.88, -13761.28, -6346.84, 104647.45, 36277.28, 0.000, 0.000, 0.000, 18:47:30.508
239, 23678.23, 27938.76, -13499.02, -19897.57, -13750.84, -6376.66, 104672.55, 36318.95, 0.000, 0.000, 0.000, 18:47:30.508
240, 23687.01, 27965.12, -13212.14, -19981.83, -13834.66, -6474.63, 104714.43, 36392.77, 0.000, 0.000, 0.000, 18:47:30.508
241, 23683.37, 27966.17, -13249.31, -19991.78, -13890.47, -6506.61, 104720.29, 36399.39, -0.026, 0.994, 0.040, 18:47:30.508
242, 23673.87, 27941.42, -13531.46, -19915.27, -13845.05, -6434.89, 104686.13, 36330.19, 0.000, 0.000, 0.000, 18:47:30.508
243, 23670.09, 27922.09, -13536.86, -19849.91, -13754.91, -6361.82, 104658.82, 36276.19, 0.000, 0.000, 0.000, 18:47:30.508
244, 23679.08, 27936.51, -13528.82, -19884.31, -13739.53, -6378.85, 104681.55, 36315.32, 0.000, 0.000, 0.000, 18:47:30.508
245, 23689.41, 27963.95, -13258.65, -19964.87, -13818.09, -6467.05, 104724.38, 36390.32, 0.000, 0.000, 0.000, 18:47:30.508
246, 23686.34, 27965.41, -13258.54, -19983.69, -13882.24, -6504.11, 104730.64, 36397.56, 0.000, 0.000, 0.000, 18:47:30.509
247, 23674.95, 27938.72, -13533.51, -19907.92, -13835.84, -6438.02, 104694.54, 36326.68, 0.000, 0.000, 0.000, 18:47:30.509
248, 23670.45, 27918.42, -13547.75, -19847.81, -13754.30, -6380.48, 104666.11, 36271.56, 0.000, 0.000, 0.000, 18:47:30.509
249, 23677.76, 27930.85, -13486.15, -19892.94, -13757.81, -6410.86, 104686.65, 36308.33, 0.000, 0.000, 0.000, 18:47:30.509
250, 23688.36, 27958.43, -13219.13, -19985.16, -13850.62, -6505.74, 104729.90, 36383.70, 0.000, 0.000, 0.000, 18:47:30.509
251, 23687.69, 27962.10, -13199.58, -20007.69, -13920.24, -6567.84, 104738.41, 36393.40, -0.026, 0.986, 0.038, 18:47:30.509
252, 23677.63, 27936.39, -13464.65, -19939.10, -13879.45, -6524.45, 104703.01, 36323.26, 0.000, 0.000, 0.000, 18:47:30.509
253, 23672.84, 27915.32, -13582.19, -19874.30, -13786.64, -6455.76, 104673.80, 36266.96, 0.000, 0.000, 0.000, 18:47:30.509
254, 23682.79, 27930.16, -13454.95, -19910.55, -13778.89, -6479.88, 104696.75, 36305.63, 0.000, 0.000, 0.000, 18:47:30.509
255, 23695.35, 27959.88, -13200.47, -19994.08, -13859.38, -6548.81, 104742.08, 36383.21, 0.000, 0.000, 0.000, 18:47:30.509
0, 23693.81, 27962.86, -13229.86, -20001.26, -13904.64, -6558.78, 104750.17, 36392.73, 0.000, 0.000, 0.000, 18:47:30.509
1, 23681.85, 27935.63, -13508.86, -19921.91, -13853.92, -6496.36, 104713.45, 36321.25, 0.000, 0.000, 0.000, 18:47:30.510
2, 23676.53, 27913.80, -13563.42, -19855.14, -13764.00, -6437.53, 104683.38, 36263.78, 0.000, 0.000, 0.000, 18:47:30.510
3, 23682.99, 27924.90, -13481.99, -19894.42, -13756.13, -6451.94, 104702.50, 36298.32, 0.000, 0.000, 0.000, 18:47:30.510
4, 23694.88, 27953.89, -13199.31, -19978.01, -13830.52, -6528.79, 104747.13, 36374.91, 0.000, 0.000, 0.000, 18:47:30.510
5, 23695.55, 27959.28, -13237.10, -19991.87, -13881.08, -6554.09, 104757.70, 36386.85, -0.028, 0.990, 0.038, 18:47:30.510
6, 23683.08, 27931.50, -13529.73, -19919.76, -13838.19, -6499.53, 104720.58, 36314.97, 0.000, 0.000, 0.000, 18:47:30.510
7, 23676.69, 27909.26, -13556.31, -19853.29, -13751.98, -6434.06, 104689.98, 36256.76, 0.000, 0.000, 0.000, 18:47:30.510
8, 23686.79, 27924.55, -13548.38, -19883.37, -13735.68, -6449.98, 104712.98, 36295.05, 0.000, 0.000, 0.000, 18:47:30.510
9, 23697.18, 27952.60, -13277.54, -19957.69, -13811.12, -6525.75, 104756.48, 36370.63, 0.000, 0.000, 0.000, 18:47:30.510
10, 23695.66, 27956.24, -13330.04, -19968.78, -13857.01, -6562.56, 104765.48, 36381.22, 0.000, 0.000, 0.000, 18:47:30.510
11, 23682.66, 27928.26, -13554.70, -19891.91, -13818.43, -6523.89, 104728.49, 36309.43, 0.000, 0.000, 0.000, 18:47:30.511
12, 23675.55, 27905.41, -13520.15, -19827.05, -13731.30, -6457.69, 104697.16, 36250.17, 0.000, 0.000, 0.000, 18:47:30.511
13, 23686.28, 27921.15, -13538.29, -19867.15, -13721.31, -6480.26, 104720.60, 36288.41, 0.000, 0.000, 0.000, 18:47:30.511
14, 23695.82, 27948.42, -13300.49, -19953.22, -13798.71, -6570.00, 104763.31, 36363.34, 0.000, 0.000, 0.000, 18:47:30.511
15, 23692.63, 27950.72, -13267.84, -19974.05, -13861.37, -6618.37, 104770.80, 36372.84, -0.026, 0.996, 0.038, 18:47:30.511
16, 23679.37, 27922.98, -13547.30, -19905.17, -13826.57, -6571.12, 104734.03, 36301.40, 0.000, 0.000, 0.000, 18:47:30.511
17, 23671.46, 27899.49, -13550.12, -19847.79, -13746.25, -6510.82, 104702.02, 36241.30, 0.000, 0.000, 0.000, 18:47:30.511
18, 23680.11, 27913.08, -13481.23, -19893.57, -13748.63, -6545.02, 104723.15, 36277.19, 0.000, 0.000, 0.000, 18:47:30.511
19, 23689.90, 27940.33, -13211.78, -19987.87, -13843.19, -6645.60, 104766.11, 36352.21, 0.000, 0.000, 0.000, 18:47:30.511
20, 23690.10, 27946.12, -13202.33, -20002.40, -13906.07, -6689.03, 104777.24, 36365.68, 0.000, 0.000, 0.000, 18:47:30.511
21, 23680.91, 27921.98, -13472.76, -19929.48, -13869.23, -6623.67, 104743.76, 36297.87, 0.000, 0.000, 0.000, 18:47:30.512
22, 23673.92, 27898.75, -13575.60, -19860.17, -13776.52, -6545.19, 104712.09, 36237.86, 0.000, 0.000, 0.000, 18:47:30.512
23, 23681.67, 27910.87, -13518.38, -19895.15, -13764.96, -6566.65, 104731.82, 36271.98, 0.000, 0.000, 0.000, 18:47:30.512
24, 23694.64, 27941.18, -13227.23, -19982.84, -13848.72, -6653.71, 104777.55, 36349.99, -0.028, 0.988, 0.036, 18:47:30.512
25, 23691.84, 27943.66, -13229.19, -19998.15, -13906.63, -6687.55, 104785.40, 36360.43, 0.000, 0.000, 0.000, 18:47:30.512
26, 23678.70, 27915.27, -13519.16, -19922.94, -13860.25, -6631.18, 104747.96, 36288.70, 0.000, 0.000, 0.000, 18:47:30.512
27, 23672.58, 27892.70, -13557.76, -19849.06, -13769.10, -6565.58, 104716.63, 36228.98, 0.000, 0.000, 0.000, 18:47:30.512
28, 23682.57, 27907.27, -13536.19, -19873.20, -13746.99, -6585.65, 104738.51, 36264.99, 0.000, 0.000, 0.000, 18:47:30.512
29, 23693.61, 27936.01, -13260.57, -19960.24, -13823.10, -6673.00, 104782.83, 36341.39, 0.000, 0.000, 0.000, 18:47:30.512
30, 23692.85, 27940.69, -13309.95, -19973.27, -13869.39, -6697.83, 104793.16, 36354.51, 0.000, 0.000, 0.000, 18:47:30.512
31, 23682.01, 27914.87, -13543.97, -19892.65, -13812.39, -6625.37, 104758.35, 36285.62, 0.000, 0.000, 0.000, 18:47:30.513
32, 23674.61, 27890.91, -13513.55, -19825.19, -13723.28, -6555.01, 104725.63, 36224.27, 0.000, 0.000, 0.000, 18:47:30.513
33, 23682.32, 27902.82, -13536.98, -19860.84, -13711.43, -6578.12, 104744.98, 36257.37, 0.000, 0.000, 0.000, 18:47:30.513
34, 23693.07, 27931.19, -13322.53, -19949.18, -13796.97, -6671.39, 104788.95, 36333.41, -0.030, 0.988, 0.036, 18:47:30.513
35, 23691.11, 27935.01, -13301.34, -19972.18, -13870.87, -6717.77, 104798.54, 36345.90, 0.000, 0.000, 0.000, 18:47:30.513
36, 23677.78, 27907.25, -13549.85, -19901.37, -13826.70, -6665.04, 104762.04, 36275.23, 0.000, 0.000, 0.000, 18:47:30.513
37, 23670.85, 27883.82, -13532.44, -19835.63, -13735.75, -6596.42, 104729.74, 36213.91, 0.000, 0.000, 0.000, 18:47:30.513
38, 23678.28, 27895.38, -13526.81, -19873.18, -13725.58, -6622.17, 104748.50, 36246.26, 0.000, 0.000, 0.000, 18:47:30.513
39, 23687.98, 27922.71, -13260.26, -19956.22, -13809.60, -6715.38, 104791.50, 36321.54, 0.000, 0.000, 0.000, 18:47:30.513
40, 23688.49, 27929.13, -13258.12, -19978.93, -13872.74, -6754.43, 104803.73, 36337.05, 0.000, 0.000, 0.000, 18:47:30.513
41, 23676.84, 27902.87, -13541.27, -19911.29, -13834.30, -6699.76, 104768.55, 36267.83, 0.000, 0.000, 0.000, 18:47:30.514
42, 23671.70, 27881.30, -13561.43, -19844.91, -13754.30, -6637.89, 104738.28, 36208.35, 0.000, 0.000, 0.000, 18:47:30.514
43, 23679.08, 27892.70, -13491.96, -19880.89, -13748.11, -6669.40, 104756.68, 36240.20, 0.000, 0.000, 0.000, 18:47:30.514
44, 23689.92, 27920.81, -13216.07, -19970.52, -13827.62, -6760.22, 104800.48, 36316.24, -0.026, 0.990, 0.036, 18:47:30.514
45, 23690.37, 27926.92, -13224.50, -19990.75, -13887.29, -6791.67, 104812.42, 36331.60, 0.000, 0.000, 0.000, 18:47:30.514
46, 23677.87, 27900.07, -13505.86, -19913.77, -13844.09, -6724.68, 104776.62, 36261.82, 0.000, 0.000, 0.000, 18:47:30.514
47, 23670.92, 27876.49, -13569.45, -19843.63, -13754.01, -6650.85, 104744.25, 36200.08, 0.000, 0.000, 0.000, 18:47:30.514
48, 23680.89, 27890.08, -13533.56, -19872.91, -13733.87, -6669.89, 104764.81, 36233.72, 0.000, 0.000, 0.000, 18:47:30.514
49, 23691.89, 27918.18, -13248.79, -19953.38, -13807.32, -6754.34, 104808.40, 36309.71, 0.000, 0.000, 0.000, 18:47:30.514
50, 23688.58, 27920.75, -13240.82, -19975.26, -13868.41, -6787.31, 104816.91, 36322.10, 0.000, 0.000, 0.000, 18:47:30.514
51, 23678.21, 27896.16, -13531.90, -19904.00, -13828.58, -6726.67, 104783.61, 36255.07, 0.000, 0.000, 0.000, 18:47:30.514
52, 23674.38, 27875.69, -13554.46, -19837.31, -13742.50, -6657.13, 104754.04, 36196.04, 0.000, 0.000, 0.000, 18:47:30.514
53, 23681.00, 27885.79, -13537.80, -19861.69, -13720.30, -6662.85, 104771.20, 36226.01, 0.000, 0.000, 0.000, 18:47:30.514
54, 23688.56, 27910.85, -13262.43, -19943.57, -13795.36, -6742.22, 104811.93, 36299.03, -0.024, 0.994, 0.040, 18:47:30.514
55, 23686.77, 27915.34, -13255.39, -19962.88, -13854.62, -6779.64, 104822.44, 36313.67, 0.000, 0.000, 0.000, 18:47:30.515
56, 23675.86, 27890.44, -13537.51, -19892.31, -13810.36, -6725.51, 104788.80, 36246.50, 0.000, 0.000, 0.000, 18:47:30.515
57, 23669.38, 27867.39, -13531.59, -19822.62, -13724.44, -6653.02, 104756.72, 36184.63, 0.000, 0.000, 0.000, 18:47:30.515
58, 23676.40, 27877.83, -13532.59, -19848.73, -13701.91, -6657.51, 104773.98, 36214.45, 0.000, 0.000, 0.000, 18:47:30.515
59, 23685.67, 27904.43, -13290.46, -19937.06, -13779.45, -6737.08, 104816.05, 36288.97, 0.000, 0.000, 0.000, 18:47:30.515
60, 23686.41, 27911.34, -13270.81, -19961.58, -13845.50, -6768.82, 104829.27, 36306.25, 0.000, 0.000, 0.000, 18:47:30.515
61, 23676.40, 27886.91, -13549.11, -19890.59, -13810.45, -6710.26, 104796.24, 36239.71, 0.000, 0.000, 0.000, 18:47:30.515
62, 23667.50, 27860.78, -13544.13, -19824.57, -13728.46, -6646.89, 104761.08, 36174.60, 0.000, 0.000, 0.000, 18:47:30.515
63, 23677.04, 27873.50, -13528.46, -19856.48, -13713.89, -6669.51, 104780.57, 36206.56, 0.000, 0.000, 0.000, 18:47:30.515
64, 23688.47, 27902.38, -13252.48, -19940.39, -13797.17, -6766.48, 104825.01, 36283.45, -0.024, 0.996, 0.040, 18:47:30.515
65, 23687.78, 27908.25, -13240.35, -19963.28, -13860.45, -6811.72, 104837.27, 36300.08, 0.000, 0.000, 0.000, 18:47:30.515
66, 23674.05, 27880.43, -13539.55, -19896.34, -13826.61, -6757.11, 104801.02, 36230.52, 0.000, 0.000, 0.000, 18:47:30.515
67, 23667.77, 27857.60, -13560.22, -19829.48, -13746.39, -6691.33, 104768.91, 36168.36, 0.000, 0.000, 0.000, 18:47:30.515
68, 23675.71, 27868.98, -13525.44, -19860.35, -13730.39, -6713.66, 104786.85, 36198.34, 0.000, 0.000, 0.000, 18:47:30.515
69, 23684.76, 27895.09, -13238.58, -19950.18, -13812.62, -6806.84, 104828.70, 36272.57, 0.000, 0.000, 0.000, 18:47:30.516
70, 23684.44, 27900.97, -13241.22, -19974.84, -13874.46, -6851.86, 104840.90, 36289.51, 0.000, 0.000, 0.000, 18:47:30.516
71, 23673.83, 27876.00, -13527.14, -19906.62, -13825.63, -6790.37, 104807.30, 36222.72, 0.000, 0.000, 0.000, 18:47:30.516
72, 23667.12, 27852.15, -13551.37, -19834.04, -13738.07, -6714.40, 104774.31, 36159.24, 0.000, 0.000, 0.000, 18:47:30.516
73, 23674.90, 27862.66, -13552.17, -19858.61, -13720.04, -6731.72, 104791.55, 36188.05, -0.026, 0.988, 0.036, 18:47:30.516
74, 23685.79, 27890.30, -13299.31, -19941.42, -13791.85, -6818.15, 104834.91, 36263.76, 0.000, 0.000, 0.000, 18:47:30.517
75, 23685.14, 27896.38, -13249.42, -19967.28, -13855.26, -6861.78, 104847.52, 36281.15, 0.000, 0.000, 0.000, 18:47:30.517
76, 23671.88, 27869.36, -13536.66, -19904.43, -13824.91, -6802.17, 104812.18, 36212.42, 0.000, 0.000, 0.000, 18:47:30.517
77, 23663.48, 27844.04, -13546.65, -19839.18, -13737.63, -6723.00, 104777.66, 36147.08, 0.000, 0.000, 0.000, 18:47:30.517
78, 23672.46, 27856.04, -13535.86, -19871.17, -13724.48, -6736.82, 104796.10, 36177.10, 0.000, 0.000, 0.000, 18:47:30.517
79, 23684.02, 27885.28, -13265.74, -19964.60, -13811.37, -6820.81, 104841.05, 36254.48, 0.000, 0.000, 0.000, 18:47:30.517
80, 23680.64, 27889.39, -13240.39, -19992.96, -13879.45, -6846.70, 104851.94, 36270.46, 0.000, 0.000, 0.000, 18:47:30.517
81, 23668.80, 27863.73, -13532.19, -19921.93, -13843.46, -6775.82, 104817.74, 36203.39, 0.000, 0.000, 0.000, 18:47:30.517
82, 23662.43, 27839.81, -13557.03, -19848.24, -13759.13, -6699.13, 104784.21, 36139.33, 0.000, 0.000, 0.000, 18:47:30.517
83, 23670.34, 27849.56, -13512.37, -19876.20, -13734.68, -6705.34, 104800.29, 36166.77, -0.026, 0.988, 0.038, 18:47:30.517
84, 23681.96, 27877.41, -13233.10, -19967.42, -13817.89, -6795.53, 104843.76, 36242.84, 0.000, 0.000, 0.000, 18:47:30.518
85, 23681.52, 27882.93, -13209.68, -19992.65, -13883.56, -6831.21, 104856.12, 36260.65, 0.000, 0.000, 0.000, 18:47:30.518
86, 23670.74, 27857.98, -13499.38, -19926.98, -13853.48, -6761.49, 104822.73, 36194.60, 0.000, 0.000, 0.000, 18:47:30.518
87, 23664.53, 27834.09, -13569.27, -19854.58, -13768.23, -6662.76, 104789.29, 36130.57, 0.000, 0.000, 0.000, 18:47:30.519
88, 23672.31, 27843.77, -13542.99, -19883.53, -13747.46, -6652.64, 104805.23, 36157.48, 0.000, 0.000, 0.000, 18:47:30.519
89, 23683.59, 27871.57, -13269.36, -19966.41, -13824.80, -6722.31, 104848.72, 36233.52, 0.000, 0.000, 0.000, 18:47:30.519
90, 23683.82, 27878.23, -13226.26, -19992.54, -13886.42, -6745.44, 104862.18, 36252.85, 0.000, 0.000, 0.000, 18:47:30.988
91, 23673.25, 27853.31, -13518.63, -19922.71, -13845.47, -6666.16, 104828.91, 36187.09, 0.000, 0.000, 0.000, 18:47:30.989
92, 23664.89, 27827.27, -13564.45, -19848.50, -13757.65, -6568.40, 104793.22, 36120.33, 0.000, 0.000, 0.000, 18:47:30.993
93, 23673.51, 27838.16, -13558.84, -19876.20, -13731.77, -6557.24, 104810.21, 36148.11, -0.022, 0.988, 0.038, 18:47:30.993
94, 23683.46, 27865.23, -13297.86, -19961.92, -13793.08, -6612.00, 104852.88, 36223.41, 0.000, 0.000, 0.000, 18:47:30.994
95, 23683.66, 27872.49, -13255.43, -19988.67, -13854.13, -6622.17, 104867.03, 36243.60, 0.000, 0.000, 0.000, 18:47:30.994
96, 23672.49, 27847.54, -13541.60, -19920.39, -13819.66, -6535.11, 104833.79, 36178.06, 0.000, 0.000, 0.000, 18:47:30.994
97, 23665.82, 27823.29, -13548.75, -19849.78, -13737.14, -6442.60, 104799.77, 36112.93, 0.000, 0.000, 0.000, 18:47:30.994
98, 23673.80, 27833.24, -13533.71, -19879.39, -13720.73, -6458.92, 104815.69, 36139.28, 0.000, 0.000, 0.000, 18:47:30.994
99, 23685.12, 27861.36, -13269.27, -19972.24, -13804.35, -6556.73, 104859.41, 36215.55, 0.000, 0.000, 0.000, 18:47:30.994
100, 23685.99, 27869.00, -13206.86, -20005.97, -13876.01, -6604.63, 104874.00, 36236.45, 0.000, 0.000, 0.000, 18:47:30.994
101, 23676.33, 27845.82, -13491.87, -19949.91, -13855.56, -6555.59, 104842.46, 36172.70, 0.000, 0.000, 0.000, 18:47:30.995
102, 23669.78, 27821.46, -13587.94, -19877.12, -13775.83, -6474.58, 104808.47, 36107.41, 0.000, 0.000, 0.000, 18:47:30.995
103, 23677.25, 27830.27, -13544.29, -19895.09, -13752.87, -6479.88, 104823.06, 36132.20, -0.024, 0.988, 0.038, 18:47:30.995
104, 23688.82, 27858.14, -13255.05, -19978.39, -13829.40, -6546.60, 104866.60, 36208.33, 0.000, 0.000, 0.000, 18:47:30.995
105, 23691.04, 27866.70, -13221.86, -20009.86, -13901.53, -6581.27, 104882.12, 36230.52, 0.000, 0.000, 0.000, 18:47:30.995
106, 23678.37, 27840.19, -13512.75, -19939.57, -13873.48, -6521.81, 104847.25, 36163.73, 0.000, 0.000, 0.000, 18:47:30.995
107, 23669.94, 27814.17, -13579.87, -19866.01, -13786.85, -6443.49, 104811.44, 36096.64, 0.000, 0.000, 0.000, 18:47:30.995
108, 23676.76, 27822.51, -13540.33, -19894.82, -13758.03, -6442.78, 104825.74, 36120.80, 0.000, 0.000, 0.000, 18:47:30.996
109, 23689.27, 27851.61, -13257.36, -19983.46, -13835.15, -6516.85, 104870.54, 36198.13, 0.000, 0.000, 0.000, 18:47:30.996
110, 23691.87, 27860.96, -13257.29, -20006.58, -13895.65, -6541.48, 104887.19, 36221.43, 0.000, 0.000, 0.000, 18:47:30.996
111, 23680.82, 27836.19, -13546.65, -19935.50, -13859.22, -6470.87, 104854.13, 36156.38, 0.000, 0.000, 0.000, 18:47:30.996
112, 23672.78, 27810.06, -13565.92, -19859.23, -13777.28, -6390.01, 104818.01, 36088.54, 0.000, 0.000, 0.000, 18:47:30.996
113, 23678.86, 27817.28, -13557.47, -19884.69, -13753.32, -6398.28, 104830.84, 36111.10, -0.028, 0.984, 0.038, 18:47:30.996
114, 23690.55, 27845.33, -13293.30, -19972.71, -13822.70, -6460.21, 104874.67, 36187.32, 0.000, 0.000, 0.000, 18:47:30.996
115, 23691.64, 27853.42, -13228.79, -20001.03, -13883.07, -6479.23, 104889.94, 36209.64, 0.000, 0.000, 0.000, 18:47:30.997
116, 23681.09, 27829.55, -13531.90, -19938.78, -13853.66, -6418.66, 104857.87, 36146.10, 0.000, 0.000, 0.000, 18:47:30.998
117, 23672.87, 27803.94, -13569.68, -19865.20, -13767.65, -6341.26, 104822.10, 36078.69, 0.000, 0.000, 0.000, 18:47:30.998
118, 23681.22, 27813.75, -13546.41, -19885.68, -13737.96, -6344.65, 104837.30, 36103.39, 0.000, 0.000, 0.000, 18:47:30.998
119, 23692.31, 27841.62, -13276.02, -19977.09, -13817.76, -6443.09, 104880.75, 36179.47, 0.000, 0.000, 0.000, 18:47:30.998
120, 23692.36, 27849.45, -13224.10, -20007.81, -13890.02, -6489.09, 104895.82, 36202.00, 0.000, 0.000, 0.000, 18:47:30.999
121, 23681.92, 27826.15, -13519.41, -19946.23, -13861.17, -6432.97, 104864.30, 36138.99, 0.000, 0.000, 0.000, 18:47:30.999
122, 23672.31, 27799.18, -13583.47, -19874.41, -13771.83, -6362.18, 104827.20, 36069.99, -0.030, 0.986, 0.040, 18:47:30.999
123, 23679.50, 27807.65, -13536.62, -19901.17, -13751.96, -6384.35, 104840.95, 36093.02, 0.000, 0.000, 0.000, 18:47:30.999
124, 23690.93, 27835.83, -13264.89, -19994.51, -13834.54, -6487.82, 104884.91, 36169.55, 0.000, 0.000, 0.000, 18:47:31.000
125, 23690.79, 27843.81, -13216.81, -20025.89, -13914.74, -6545.89, 104900.29, 36192.55, 0.000, 0.000, 0.000, 18:47:31.000
126, 23679.24, 27819.92, -13482.79, -19963.55, -13895.61, -6505.39, 104867.99, 36129.02, 0.000, 0.000, 0.000, 18:47:31.000
127, 23672.96, 27796.03, -13601.97, -19887.44, -13811.19, -6430.57, 104833.99, 36063.15, 0.000, 0.000, 0.000, 18:47:31.000
128, 23679.39, 27803.65, -13544.96, -19901.88, -13781.73, -6427.27, 104846.87, 36085.10, 0.000, 0.000, 0.000, 18:47:31.001
129, 23691.08, 27832.08, -13256.08, -19981.81, -13849.54, -6502.77, 104890.88, 36161.84, 0.000, 0.000, 0.000, 18:47:31.001
130, 23692.02, 27840.48, -13233.30, -20008.54, -13909.04, -6535.81, 104907.02, 36185.89, 0.000, 0.000, 0.000, 18:47:31.001
131, 23682.14, 27817.71, -13524.33, -19942.99, -13877.88, -6476.08, 104876.08, 36124.15, 0.000, 0.000, 0.000, 18:47:31.001
132, 23674.65, 27792.52, -13578.62, -19868.22, -13789.62, -6399.57, 104840.74, 36056.80, -0.030, 0.986, 0.040, 18:47:31.001
133, 23681.29, 27800.61, -13558.99, -19889.65, -13755.51, -6405.70, 104854.00, 36078.93, 0.000, 0.000, 0.000, 18:47:31.002
134, 23692.11, 27828.35, -13300.43, -19976.36, -13828.04, -6486.68, 104897.27, 36155.06, 0.000, 0.000, 0.000, 18:47:31.002
135, 23693.77, 27838.07, -13265.13, -20008.81, -13899.95, -6528.27, 104914.68, 36180.75, 0.000, 0.000, 0.000, 18:47:31.003
136, 23681.98, 27814.13, -13552.44, -19946.00, -13867.51, -6476.13, 104882.74, 36118.03, 0.000, 0.000, 0.000, 18:47:31.003
137, 23674.03, 27788.98, -13563.35, -19868.06, -13780.54, -6398.21, 104847.13, 36050.19, 0.000, 0.000, 0.000, 18:47:31.003
138, 23682.05, 27798.28, -13568.92, -19885.59, -13752.00, -6407.84, 104861.57, 36073.08, 0.000, 0.000, 0.000, 18:47:31.004
139, 23692.83, 27825.98, -13344.80, -19967.46, -13819.90, -6495.08, 104904.96, 36149.07, 0.000, 0.000, 0.000, 18:47:31.004
140, 23692.29, 27833.67, -13267.50, -19994.22, -13887.09, -6543.67, 104920.16, 36172.68, 0.000, 0.000, 0.000, 18:47:31.005
141, 23680.94, 27809.77, -13551.46, -19930.92, -13860.99, -6496.87, 104888.30, 36110.14, 0.000, 0.000, 0.000, 18:47:31.005
142, 23672.42, 27783.51, -13564.74, -19859.61, -13779.96, -6435.83, 104851.52, 36040.93, -0.030, 0.994, 0.040, 18:47:31.005
143, 23679.37, 27791.62, -13557.14, -19882.93, -13753.97, -6450.06, 104864.63, 36062.32, 0.000, 0.000, 0.000, 18:47:31.005
144, 23690.59, 27819.74, -13298.86, -19972.65, -13825.29, -6537.59, 104908.52, 36138.75, 0.000, 0.000, 0.000, 18:47:31.005
145, 23691.80, 27829.37, -13209.86, -20013.97, -13907.01, -6601.05, 104925.86, 36164.74, 0.000, 0.000, 0.000, 18:47:31.006
146, 23681.22, 27806.75, -13486.59, -19961.81, -13895.83, -6565.53, 104895.10, 36103.52, 0.000, 0.000, 0.000, 18:47:31.006
147, 23674.05, 27782.08, -13605.89, -19898.62, -13818.43, -6506.91, 104859.95, 36035.91, 0.000, 0.000, 0.000, 18:47:31.006
148, 23679.06, 27788.11, -13546.39, -19916.01, -13794.18, -6521.99, 104870.73, 36054.64, 0.000, 0.000, 0.000, 18:47:31.006
149, 23690.86, 27816.32, -13256.26, -19997.21, -13861.95, -6617.48, 104914.57, 36131.13, 0.000, 0.000, 0.000, 18:47:31.006
150, 23693.56, 27827.12, -13220.30, -20028.71, -13929.47, -6672.71, 104933.14, 36158.50, 0.000, 0.000, 0.000, 18:47:31.006
151, 23683.59, 27804.70, -13489.55, -19960.13, -13904.89, -6620.90, 104902.63, 36097.75, 0.000, 0.000, 0.000, 18:47:31.007
152, 23676.58, 27779.93, -13592.74, -19876.31, -13813.11, -6525.35, 104867.20, 36029.78, -0.020, 0.990, 0.040, 18:47:31.007
153, 23682.32, 27786.41, -13570.53, -19893.88, -13771.56, -6526.58, 104878.41, 36048.73, 0.000, 0.000, 0.000, 18:47:31.007
154, 23692.83, 27813.64, -13295.26, -19973.09, -13835.66, -6603.20, 104921.16, 36124.35, 0.000, 0.000, 0.000, 18:47:31.008
155, 23694.41, 27823.56, -13258.12, -19999.49, -13896.06, -6637.89, 104938.84, 36151.29, 0.000, 0.000, 0.000, 18:47:31.008
156, 23683.33, 27800.18, -13551.57, -19938.43, -13866.87, -6581.56, 104907.69, 36090.15, 0.000, 0.000, 0.000, 18:47:31.008
157, 23674.18, 27773.23, -13569.59, -19865.58, -13782.89, -6494.88, 104870.00, 36020.02, 0.000, 0.000, 0.000, 18:47:31.008
158, 23680.87, 27780.65, -13575.78, -19881.52, -13750.08, -6489.92, 104881.94, 36039.64, 0.000, 0.000, 0.000, 18:47:31.008
159, 23691.31, 27807.98, -13356.60, -19958.97, -13812.21, -6564.84, 104924.77, 36115.21, 0.000, 0.000, 0.000, 18:47:31.009
160, 23693.56, 27819.16, -13270.59, -19997.75, -13885.66, -6614.95, 104943.90, 36143.86, 0.000, 0.000, 0.000, 18:47:31.009
161, 23683.15, 27797.32, -13564.04, -19937.80, -13864.16, -6564.80, 104914.23, 36084.34, 0.000, 0.000, 0.000, 18:47:31.009
162, 23674.14, 27771.06, -13573.68, -19867.44, -13784.19, -6481.83, 104877.13, 36014.43, -0.028, 0.994, 0.042, 18:47:31.010
163, 23679.24, 27777.00, -13571.31, -19881.47, -13746.05, -6472.28, 104887.45, 36032.04, 0.000, 0.000, 0.000, 18:47:31.010
164, 23690.63, 27805.68, -13341.17, -19968.58, -13816.37, -6547.97, 104931.78, 36109.04, 0.000, 0.000, 0.000, 18:47:31.010
165, 23692.58, 27816.74, -13227.70, -20004.21, -13892.03, -6592.51, 104950.89, 36137.92, 0.000, 0.000, 0.000, 18:47:31.010
166, 23682.90, 27795.38, -13525.80, -19946.90, -13874.67, -6548.75, 104921.84, 36079.13, 0.000, 0.000, 0.000, 18:47:31.011
167, 23674.10, 27769.00, -13581.88, -19873.74, -13797.49, -6479.26, 104884.69, 36009.13, 0.000, 0.000, 0.000, 18:47:31.011
168, 23680.53, 27776.15, -13543.19, -19896.67, -13775.07, -6488.44, 104896.15, 36027.46, 0.000, 0.000, 0.000, 18:47:31.011
169, 23690.93, 27803.65, -13271.62, -19987.85, -13843.69, -6572.62, 104939.18, 36103.05, 0.000, 0.000, 0.000, 18:47:31.011
170, 23691.15, 27813.21, -13207.11, -20022.96, -13916.73, -6619.25, 104956.77, 36130.48, 0.000, 0.000, 0.000, 18:47:31.011
171, 23680.62, 27791.13, -13484.49, -19968.18, -13904.62, -6576.58, 104926.93, 36071.04, -0.028, 0.990, 0.040, 18:47:31.011
172, 23673.98, 27766.77, -13590.29, -19890.62, -13815.81, -6502.35, 104891.57, 36002.64, 0.000, 0.000, 0.000, 18:47:31.012
173, 23681.07, 27774.34, -13577.72, -19906.04, -13783.07, -6510.10, 104903.35, 36021.00, 0.000, 0.000, 0.000, 18:47:31.012
174, 23693.25, 27802.84, -13314.40, -19982.71, -13849.50, -6578.95, 104947.54, 36097.60, 0.000, 0.000, 0.000, 18:47:31.012
175, 23694.77, 27812.92, -13234.18, -20012.54, -13920.49, -6620.74, 104965.78, 36126.09, 0.000, 0.000, 0.000, 18:47:31.013
176, 23684.80, 27791.49, -13531.01, -19955.46, -13900.66, -6576.82, 104936.66, 36067.69, 0.000, 0.000, 0.000, 18:47:31.013
177, 23679.71, 27768.60, -13569.10, -19872.62, -13811.86, -6486.12, 104902.86, 36000.57, 0.000, 0.000, 0.000, 18:47:31.013
178, 23685.45, 27774.57, -13577.59, -19877.12, -13765.61, -6470.43, 104912.89, 36017.00, 0.000, 0.000, 0.000, 18:47:31.013
179, 23694.26, 27800.27, -13455.28, -19957.18, -13822.63, -6550.87, 104954.04, 36090.62, 0.000, 0.000, 0.000, 18:47:31.013
180, 23694.05, 27809.46, -13318.96, -19995.85, -13896.10, -6597.92, 104971.45, 36118.63, 0.000, 0.000, 0.000, 18:47:31.015
181, 23685.05, 27789.50, -13562.97, -19930.20, -13878.40, -6554.31, 104944.14, 36062.04, -0.028, 0.988, 0.038, 18:47:31.015
182, 23676.78, 27763.68, -13539.70, -19851.39, -13794.18, -6483.46, 104907.26, 35991.65, 0.000, 0.000, 0.000, 18:47:31.015
183, 23681.74, 27769.02, -13555.64, -19863.53, -13751.44, -6487.12, 104916.42, 36007.05, 0.000, 0.000, 0.000, 18:47:31.016
184, 23692.24, 27796.54, -13413.77, -19948.51, -13823.50, -6582.45, 104959.36, 36082.55, 0.000, 0.000, 0.000, 18:47:31.016
185, 23693.36, 27807.31, -13280.51, -19989.10, -13898.58, -6643.94, 104978.41, 36112.24, 0.000, 0.000, 0.000, 18:47:31.016
186, 23683.15, 27786.48, -13559.73, -19936.08, -13881.68, -6604.72, 104950.11, 36054.84, 0.000, 0.000, 0.000, 18:47:31.016
187, 23674.56, 27760.40, -13554.68, -19862.79, -13796.97, -6529.12, 104912.70, 35984.00, 0.000, 0.000, 0.000, 18:47:31.016
188, 23680.53, 27766.65, -13563.31, -19883.26, -13761.12, -6538.04, 104922.84, 36000.01, 0.000, 0.000, 0.000, 18:47:31.016
189, 23690.68, 27793.70, -13367.48, -19971.30, -13827.33, -6619.87, 104965.30, 36075.11, 0.000, 0.000, 0.000, 18:47:31.016
190, 23690.48, 27803.18, -13219.83, -20013.57, -13906.79, -6670.43, 104983.10, 36103.97, 0.000, 0.000, 0.000, 18:47:31.017
191, 23679.71, 27781.88, -13514.04, -19959.37, -13894.09, -6635.83, 104954.18, 36046.34, -0.026, 0.980, 0.042, 18:47:31.017
192, 23672.93, 27757.58, -13583.36, -19887.17, -13814.58, -6570.05, 104918.64, 35977.23, 0.000, 0.000, 0.000, 18:47:31.017
193, 23678.12, 27762.74, -13568.09, -19902.15, -13778.60, -6563.79, 104927.45, 35991.83, 0.000, 0.000, 0.000, 18:47:31.019
194, 23689.41, 27790.64, -13307.02, -19985.90, -13837.88, -6632.41, 104970.70, 36067.73, 0.000, 0.000, 0.000, 18:47:31.019
195, 23690.35, 27801.46, -13207.67, -20024.10, -13915.99, -6680.51, 104990.01, 36098.45, 0.000, 0.000, 0.000, 18:47:31.019
196, 23678.32, 27779.04, -13496.38, -19968.69, -13902.90, -6635.52, 104959.99, 36040.00, 0.000, 0.000, 0.000, 18:47:31.019
197, 23672.89, 27755.81, -13569.68, -19882.44, -13804.75, -6554.25, 104925.57, 35971.96, 0.000, 0.000, 0.000, 18:47:31.019
198, 23679.39, 27762.12, -13569.92, -19887.06, -13758.57, -6550.56, 104935.42, 35987.25, 0.000, 0.000, 0.000, 18:47:31.020
199, 23691.55, 27790.97, -13381.32, -19964.71, -13814.07, -6625.21, 104979.52, 36064.07, 0.000, 0.000, 0.000, 18:47:31.020
200, 23691.24, 27800.45, -13262.09, -20000.54, -13881.66, -6668.35, 104997.38, 36093.64, 0.000, 0.000, 0.000, 18:47:31.020
201, 23680.46, 27779.24, -13544.55, -19941.64, -13860.52, -6622.24, 104968.88, 36036.66, -0.022, 0.986, 0.042, 18:47:31.020
202, 23672.20, 27753.51, -13541.60, -19859.35, -13773.73, -6542.13, 104931.84, 35965.61, 0.000, 0.000, 0.000, 18:47:31.020
203, 23676.84, 27758.03, -13554.81, -19870.01, -13737.63, -6543.23, 104939.89, 35978.66, 0.000, 0.000, 0.000, 18:47:31.020
204, 23689.03, 27787.26, -13387.22, -19951.44, -13802.69, -6628.21, 104984.40, 36055.91, 0.000, 0.000, 0.000, 18:47:31.020
205, 23689.70, 27798.21, -13260.33, -19990.57, -13879.70, -6680.29, 105003.98, 36087.25, 0.000, 0.000, 0.000, 18:47:31.021
206, 23679.39, 27777.81, -13547.59, -19935.54, -13862.26, -6637.60, 104976.41, 36031.50, 0.000, 0.000, 0.000, 18:47:31.021
207, 23669.31, 27750.40, -13550.68, -19864.31, -13784.03, -6571.88, 104937.50, 35958.75, 0.000, 0.000, 0.000, 18:47:31.021
208, 23676.87, 27757.94, -13560.94, -19873.61, -13746.32, -6571.88, 104948.27, 35974.44, 0.000, 0.000, 0.000, 18:47:31.021
209, 23687.73, 27785.70, -13389.97, -19957.78, -13806.72, -6656.86, 104991.37, 36050.30, 0.000, 0.000, 0.000, 18:47:31.022
210, 23690.21, 27798.39, -13256.08, -19998.35, -13882.89, -6711.85, 105012.90, 36083.70, 0.000, 0.000, 0.000, 18:47:31.481
211, 23680.13, 27778.17, -13545.69, -19945.78, -13868.00, -6670.36, 104985.49, 36028.30, -0.022, 0.990, 0.042, 18:47:31.481
212, 23669.36, 27749.87, -13558.81, -19870.99, -13788.41, -6597.59, 104945.75, 35954.48, 0.000, 0.000, 0.000, 18:47:31.481
213, 23674.50, 27754.54, -13553.78, -19881.07, -13750.50, -6593.97, 104953.66, 35967.09, 0.000, 0.000, 0.000, 18:47:31.481
214, 23686.12, 27782.99, -13317.68, -19970.14, -13822.79, -6672.82, 104997.23, 36043.24, 0.000, 0.000, 0.000, 18:47:31.481
215, 23688.58, 27795.58, -13199.40, -20013.93, -13903.66, -6726.15, 105018.41, 36076.95, 0.000, 0.000, 0.000, 18:47:31.481
216, 23679.01, 27775.53, -13486.95, -19961.63, -13885.84, -6679.64, 104991.30, 36021.94, 0.000, 0.000, 0.000, 18:47:31.481
217, 23670.85, 27749.67, -13580.16, -19883.96, -13804.39, -6600.87, 104954.16, 35950.43, 0.000, 0.000, 0.000, 18:47:31.481
218, 23675.26, 27753.45, -13561.09, -19890.73, -13763.94, -6592.54, 104960.95, 35961.63, 0.000, 0.000, 0.000, 18:47:31.482
219, 23687.30, 27782.23, -13313.12, -19978.68, -13830.77, -6666.03, 105004.85, 36038.23, 0.000, 0.000, 0.000, 18:47:31.482
220, 23689.90, 27795.33, -13207.56, -20015.90, -13903.21, -6715.96, 105026.62, 36072.61, -0.020, 0.988, 0.044, 18:47:31.482
221, 23680.64, 27776.02, -13506.42, -19966.97, -13892.91, -6680.98, 105000.13, 36018.58, 0.000, 0.000, 0.000, 18:47:31.482
222, 23671.77, 27749.20, -13574.62, -19886.70, -13803.23, -6599.29, 104961.76, 35945.98, 0.000, 0.000, 0.000, 18:47:31.482
223, 23674.03, 27750.43, -13563.44, -19897.37, -13764.41, -6593.54, 104965.94, 35954.25, 0.000, 0.000, 0.000, 18:47:31.482
224, 23686.77, 27779.71, -13310.60, -19977.74, -13822.43, -6666.01, 105010.26, 36031.30, 0.000, 0.000, 0.000, 18:47:31.482
225, 23691.42, 27794.75, -13200.18, -20017.91, -13896.66, -6719.54, 105033.95, 36067.87, 0.000, 0.000, 0.000, 18:47:31.482
226, 23682.14, 27775.08, -13491.20, -19963.93, -13888.66, -6676.69, 105007.28, 36013.46, 0.000, 0.000, 0.000, 18:47:31.482
227, 23672.24, 27747.30, -13569.32, -19881.92, -13802.74, -6595.40, 104967.95, 35939.61, 0.000, 0.000, 0.000, 18:47:31.483
228, 23677.83, 27752.04, -13554.34, -19886.23, -13762.28, -6584.31, 104975.32, 35951.02, 0.000, 0.000, 0.000, 18:47:31.483
229, 23689.32, 27780.45, -13314.31, -19968.76, -13822.00, -6663.41, 105018.84, 36027.05, 0.000, 0.000, 0.000, 18:47:31.483
230, 23691.46, 27793.46, -13218.80, -20013.04, -13898.90, -6716.83, 105040.81, 36062.15, -0.018, 0.990, 0.042, 18:47:31.483
231, 23680.40, 27772.69, -13511.20, -19958.01, -13882.69, -6667.44, 105013.12, 36007.05, 0.000, 0.000, 0.000, 18:47:31.483
232, 23670.83, 27745.51, -13561.72, -19879.33, -13803.41, -6585.29, 104974.38, 35933.47, 0.000, 0.000, 0.000, 18:47:31.483
233, 23677.40, 27751.01, -13562.73, -19882.68, -13759.33, -6576.26, 104982.59, 35944.98, 0.000, 0.000, 0.000, 18:47:31.483
234, 23688.51, 27778.75, -13367.28, -19963.44, -13815.99, -6651.36, 105025.37, 36020.30, 0.000, 0.000, 0.000, 18:47:31.483
235, 23691.26, 27792.31, -13236.61, -20006.46, -13885.89, -6700.67, 105047.90, 36056.22, 0.000, 0.000, 0.000, 18:47:31.483
236, 23681.22, 27772.60, -13532.30, -19954.25, -13868.03, -6656.01, 105021.45, 36002.47, 0.000, 0.000, 0.000, 18:47:31.484
237, 23672.58, 27746.20, -13558.57, -19878.17, -13788.48, -6577.65, 104983.52, 35929.40, 0.000, 0.000, 0.000, 18:47:31.484
238, 23675.82, 27748.37, -13557.85, -19888.56, -13753.30, -6575.23, 104988.33, 35937.54, 0.000, 0.000, 0.000, 18:47:31.484
239, 23688.40, 27777.58, -13331.27, -19972.71, -13811.75, -6650.56, 105032.48, 36014.20, 0.000, 0.000, 0.000, 18:47:31.484
240, 23690.70, 27790.91, -13223.72, -20015.12, -13885.66, -6693.54, 105054.94, 36049.99, -0.026, 0.984, 0.038, 18:47:31.484
241, 23680.94, 27771.73, -13527.48, -19959.35, -13878.60, -6649.06, 105029.15, 35997.10, 0.000, 0.000, 0.000, 18:47:31.484
242, 23672.69, 27745.76, -13549.94, -19874.97, -13787.76, -6568.02, 104991.62, 35924.48, 0.000, 0.000, 0.000, 18:47:31.484
243, 23677.27, 27749.47, -13554.77, -19874.50, -13744.96, -6564.95, 104997.79, 35933.51, 0.000, 0.000, 0.000, 18:47:31.484
244, 23688.60, 27777.88, -13389.23, -19960.51, -13813.22, -6660.06, 105041.15, 36009.42, 0.000, 0.000, 0.000, 18:47:31.485
245, 23689.99, 27791.02, -13209.54, -20012.57, -13900.86, -6731.05, 105063.43, 36045.32, 0.000, 0.000, 0.000, 18:47:31.485
246, 23678.95, 27771.01, -13493.75, -19960.15, -13888.30, -6692.78, 105036.74, 35991.74, 0.000, 0.000, 0.000, 18:47:31.485
247, 23667.99, 27742.43, -13566.53, -19880.63, -13804.59, -6623.58, 104996.45, 35916.23, 0.000, 0.000, 0.000, 18:47:31.485
248, 23672.40, 27745.29, -13559.73, -19884.96, -13766.19, -6630.06, 105001.63, 35923.99, 0.000, 0.000, 0.000, 18:47:31.485
249, 23684.53, 27774.10, -13332.57, -19970.97, -13833.85, -6719.02, 105045.28, 36000.01, 0.000, 0.000, 0.000, 18:47:31.485
250, 23684.91, 27785.56, -13202.08, -20017.30, -13912.66, -6784.85, 105066.02, 36034.52, -0.024, 0.988, 0.036, 18:47:31.486
251, 23674.47, 27765.72, -13481.54, -19964.38, -13897.29, -6747.03, 105039.54, 35981.32, 0.000, 0.000, 0.000, 18:47:31.486
252, 23665.29, 27738.60, -13566.23, -19881.92, -13809.40, -6654.76, 105000.69, 35907.14, 0.000, 0.000, 0.000, 18:47:31.486
253, 23670.92, 27742.78, -13561.52, -19884.11, -13759.98, -6641.93, 105006.93, 35915.65, 0.000, 0.000, 0.000, 18:47:31.487
254, 23682.99, 27771.66, -13348.10, -19967.73, -13816.98, -6721.44, 105050.55, 35991.67, 0.000, 0.000, 0.000, 18:47:31.487
255, 23686.21, 27786.28, -13206.13, -20015.07, -13895.56, -6780.83, 105074.23, 36029.71, 0.000, 0.000, 0.000, 18:47:31.487
0, 23675.39, 27766.05, -13495.11, -19964.55, -13882.60, -6741.40, 105047.38, 35976.32, 0.000, 0.000, 0.000, 18:47:31.487
1, 23666.21, 27738.74, -13566.32, -19884.63, -13801.51, -6657.87, 105008.34, 35901.66, 0.000, 0.000, 0.000, 18:47:31.488
2, 23671.77, 27742.45, -13558.30, -19886.99, -13760.38, -6651.32, 105014.05, 35909.66, 0.000, 0.000, 0.000, 18:47:31.488
3, 23683.42, 27770.83, -13325.26, -19971.86, -13811.79, -6720.01, 105057.09, 35985.28, 0.000, 0.000, 0.000, 18:47:31.488
4, 23685.65, 27784.47, -13210.82, -20015.67, -13883.67, -6763.44, 105080.15, 36022.70, -0.026, 0.996, 0.034, 18:47:31.488
5, 23676.93, 27766.59, -13511.16, -19966.30, -13872.03, -6717.44, 105055.72, 35971.82, 0.000, 0.000, 0.000, 18:47:31.488
6, 23668.02, 27739.36, -13563.93, -19883.89, -13784.03, -6627.69, 105016.78, 35897.30, 0.000, 0.000, 0.000, 18:47:31.488
7, 23672.87, 27742.18, -13559.22, -19883.40, -13737.54, -6611.62, 105021.63, 35904.01, 0.000, 0.000, 0.000, 18:47:31.488
8, 23683.62, 27769.54, -13377.67, -19965.14, -13793.17, -6682.95, 105063.73, 35978.60, 0.000, 0.000, 0.000, 18:47:31.488
9, 23686.72, 27784.58, -13225.73, -20010.33, -13868.81, -6734.40, 105088.20, 36017.67, 0.000, 0.000, 0.000, 18:47:31.489
10, 23675.41, 27764.69, -13518.18, -19963.50, -13865.21, -6702.17, 105061.94, 35965.16, 0.000, 0.000, 0.000, 18:47:31.489
11, 23666.00, 27737.46, -13559.95, -19885.68, -13786.09, -6627.00, 105022.93, 35890.39, 0.000, 0.000, 0.000, 18:47:31.489
12, 23669.80, 27739.23, -13559.73, -19882.64, -13741.43, -6624.77, 105026.69, 35895.65, 0.000, 0.000, 0.000, 18:47:31.489
13, 23679.30, 27765.52, -13379.75, -19961.02, -13807.32, -6715.60, 105067.81, 35969.14, -0.036, 0.996, 0.032, 18:47:31.489
14, 23683.97, 27782.23, -13204.09, -20015.58, -13897.78, -6791.82, 105094.13, 36010.36, 0.000, 0.000, 0.000, 18:47:31.489
15, 23674.07, 27763.66, -13482.66, -19970.30, -13892.70, -6760.22, 105069.27, 35959.66, 0.000, 0.000, 0.000, 18:47:31.489
16, 23665.27, 27736.95, -13570.79, -19890.32, -13808.88, -6679.26, 105030.76, 35885.48, 0.000, 0.000, 0.000, 18:47:31.490
17, 23668.42, 27738.18, -13556.47, -19890.73, -13763.98, -6682.37, 105033.81, 35889.88, 0.000, 0.000, 0.000, 18:47:31.490
18, 23679.91, 27766.43, -13330.80, -19982.06, -13829.94, -6778.52, 105076.82, 35965.48, 0.000, 0.000, 0.000, 18:47:31.490
19, 23681.14, 27779.66, -13199.69, -20029.89, -13912.87, -6835.30, 105099.66, 36003.47, 0.000, 0.000, 0.000, 18:47:31.490
20, 23669.67, 27759.23, -13481.59, -19979.26, -13893.89, -6790.88, 105073.05, 35951.02, 0.000, 0.000, 0.000, 18:47:31.491
21, 23662.47, 27734.02, -13575.06, -19903.02, -13812.71, -6710.37, 105036.03, 35878.06, 0.000, 0.000, 0.000, 18:47:31.491
22, 23664.53, 27733.93, -13554.46, -19904.65, -13763.62, -6688.25, 105037.80, 35880.85, 0.000, 0.000, 0.000, 18:47:31.491
23, 23677.38, 27763.39, -13310.28, -19988.25, -13823.26, -6759.86, 105082.01, 35957.47, -0.034, 0.992, 0.038, 18:47:31.492
24, 23682.30, 27780.27, -13191.15, -20033.26, -13900.08, -6817.01, 105108.63, 35999.41, 0.000, 0.000, 0.000, 18:47:31.492
25, 23672.26, 27761.27, -13457.78, -19984.72, -13892.57, -6779.22, 105083.37, 35948.62, 0.000, 0.000, 0.000, 18:47:31.492
26, 23664.86, 27735.70, -13579.65, -19905.03, -13804.86, -6692.58, 105045.84, 35875.13, 0.000, 0.000, 0.000, 18:47:31.492
27, 23669.29, 27738.04, -13569.50, -19904.45, -13749.03, -6676.00, 105049.82, 35880.02, 0.000, 0.000, 0.000, 18:47:31.492
28, 23680.78, 27766.07, -13343.68, -19985.32, -13803.41, -6742.31, 105092.49, 35955.15, 0.000, 0.000, 0.000, 18:47:31.493
29, 23682.75, 27779.80, -13201.52, -20033.69, -13881.08, -6787.91, 105116.14, 35994.53, 0.000, 0.000, 0.000, 18:47:31.493
30, 23674.43, 27762.97, -13488.07, -19988.56, -13873.10, -6745.09, 105093.27, 35946.50, 0.000, 0.000, 0.000, 18:47:31.493
31, 23663.30, 27734.00, -13574.82, -19904.92, -13787.09, -6644.97, 105052.15, 35869.34, 0.000, 0.000, 0.000, 18:47:31.493
32, 23667.28, 27735.63, -13569.41, -19904.83, -13740.00, -6614.10, 105055.16, 35872.98, 0.000, 0.000, 0.000, 18:47:31.493
33, 23679.50, 27764.17, -13353.40, -19982.39, -13799.77, -6673.22, 105098.37, 35948.80, -0.026, 0.994, 0.036, 18:47:31.493
34, 23682.46, 27779.17, -13199.02, -20026.63, -13882.44, -6712.54, 105123.09, 35989.66, 0.000, 0.000, 0.000, 18:47:31.493
35, 23673.27, 27761.60, -13481.57, -19977.14, -13872.27, -6669.60, 105099.30, 35940.98, 0.000, 0.000, 0.000, 18:47:31.494
36, 23663.79, 27733.73, -13574.55, -19896.31, -13798.65, -6578.43, 105059.48, 35865.09, 0.000, 0.000, 0.000, 18:47:31.494
37, 23667.61, 27734.78, -13562.84, -19900.67, -13762.06, -6559.43, 105061.84, 35867.93, 0.000, 0.000, 0.000, 18:47:31.494
38, 23681.70, 27765.47, -13319.43, -19987.62, -13826.32, -6631.99, 105107.09, 35945.67, 0.000, 0.000, 0.000, 18:47:31.494
39, 23685.18, 27781.09, -13194.73, -20037.91, -13909.71, -6683.19, 105132.84, 35987.69, 0.000, 0.000, 0.000, 18:47:31.494
40, 23674.47, 27761.60, -13443.37, -19989.10, -13904.48, -6625.37, 105107.22, 35937.27, 0.000, 0.000, 0.000, 18:47:31.494
41, 23663.19, 27732.01, -13587.71, -19907.22, -13819.23, -6518.80, 105065.69, 35859.48, 0.000, 0.000, 0.000, 18:47:31.495
42, 23666.07, 27732.17, -13563.73, -19908.52, -13771.71, -6491.17, 105067.16, 35861.05, 0.000, 0.000, 0.000, 18:47:31.495
43, 23678.83, 27761.18, -13318.76, -19995.47, -13829.90, -6559.99, 105110.88, 35937.13, -0.020, 0.994, 0.036, 18:47:31.495
44, 23681.49, 27776.58, -13202.82, -20048.98, -13912.84, -6599.89, 105136.32, 35979.00, 0.000, 0.000, 0.000, 18:47:31.495
45, 23672.62, 27759.90, -13424.14, -20001.88, -13902.63, -6536.03, 105113.57, 35931.61, 0.000, 0.000, 0.000, 18:47:31.495
46, 23662.67, 27731.47, -13585.21, -19915.13, -13811.83, -6427.87, 105073.27, 35854.90, 0.000, 0.000, 0.000, 18:47:31.495
47, 23666.41, 27731.76, -13575.98, -19912.77, -13762.08, -6409.45, 105074.74, 35856.24, 0.000, 0.000, 0.000, 18:47:31.495
48, 23680.18, 27761.67, -13353.76, -19995.09, -13811.03, -6475.77, 105119.29, 35933.02, 0.000, 0.000, 0.000, 18:47:31.496
49, 23683.19, 27777.25, -13198.37, -20046.99, -13887.18, -6529.84, 105144.93, 35975.15, 0.000, 0.000, 0.000, 18:47:31.496
50, 23671.14, 27757.31, -13457.98, -20001.57, -13877.17, -6495.86, 105119.22, 35924.86, 0.000, 0.000, 0.000, 18:47:31.496
51, 23661.13, 27729.33, -13579.62, -19922.02, -13792.08, -6415.38, 105079.28, 35848.38, 0.000, 0.000, 0.000, 18:47:31.496
52, 23664.93, 27730.36, -13569.21, -19920.30, -13741.52, -6399.68, 105081.31, 35850.05, 0.000, 0.000, 0.000, 18:47:31.496
53, 23676.29, 27757.94, -13343.99, -20002.29, -13798.16, -6463.70, 105123.40, 35924.41, -0.024, 0.988, 0.038, 18:47:31.496
54, 23680.31, 27774.34, -13201.10, -20050.68, -13885.26, -6511.09, 105149.89, 35967.87, 0.000, 0.000, 0.000, 18:47:31.496
55, 23671.73, 27757.67, -13476.65, -19998.44, -13880.23, -6458.80, 105127.60, 35921.24, 0.000, 0.000, 0.000, 18:47:31.497
56, 23661.76, 27729.44, -13575.29, -19915.05, -13802.04, -6368.55, 105087.44, 35844.42, 0.000, 0.000, 0.000, 18:47:31.497
57, 23665.78, 27730.38, -13568.38, -19914.62, -13759.04, -6351.34, 105089.25, 35845.78, 0.000, 0.000, 0.000, 18:47:31.497
58, 23679.17, 27759.93, -13349.85, -19994.78, -13819.05, -6423.69, 105133.30, 35921.98, 0.000, 0.000, 0.000, 18:47:31.497
59, 23681.47, 27775.01, -13193.54, -20042.23, -13906.38, -6467.39, 105158.83, 35964.43, 0.000, 0.000, 0.000, 18:47:31.498
60, 23672.35, 27758.14, -13442.72, -19998.60, -13904.55, -6424.72, 105136.43, 35917.84, 0.000, 0.000, 0.000, 18:47:31.498
61, 23663.14, 27730.91, -13587.40, -19916.95, -13823.12, -6326.64, 105097.02, 35841.98, 0.000, 0.000, 0.000, 18:47:31.498
62, 23665.20, 27729.80, -13566.48, -19916.37, -13776.90, -6291.48, 105096.76, 35840.93, -0.028, 0.980, 0.040, 18:47:31.498
63, 23679.41, 27760.22, -13308.23, -19996.36, -13830.72, -6348.81, 105141.59, 35917.84, 0.000, 0.000, 0.000, 18:47:31.498
64, 23683.77, 27777.14, -13191.31, -20041.80, -13908.91, -6404.58, 105168.93, 35962.50, 0.000, 0.000, 0.000, 18:47:31.499
65, 23672.15, 27757.42, -13443.66, -19996.59, -13898.18, -6358.98, 105143.66, 35913.30, 0.000, 0.000, 0.000, 18:47:31.499
66, 23664.10, 27731.14, -13594.31, -19917.13, -13817.22, -6273.15, 105105.34, 35838.29, 0.000, 0.000, 0.000, 18:47:31.499
67, 23666.70, 27730.33, -13573.63, -19916.21, -13772.83, -6258.51, 105105.25, 35837.09, 0.000, 0.000, 0.000, 18:47:31.499
68, 23680.62, 27760.46, -13318.22, -20001.05, -13831.68, -6332.41, 105149.82, 35913.87, 0.000, 0.000, 0.000, 18:47:31.499
69, 23683.44, 27776.13, -13195.67, -20049.20, -13903.54, -6371.52, 105175.99, 35957.43, 0.000, 0.000, 0.000, 18:47:31.500
70, 23671.12, 27755.97, -13435.79, -20004.99, -13890.78, -6309.61, 105150.25, 35907.85, 0.000, 0.000, 0.000, 18:47:31.500
71, 23661.60, 27727.92, -13591.27, -19929.57, -13806.96, -6214.37, 105110.17, 35830.94, 0.000, 0.000, 0.000, 18:47:31.500
72, 23664.35, 27727.29, -13576.96, -19928.90, -13755.67, -6194.58, 105110.05, 35829.49, -0.024, 0.976, 0.032, 18:47:31.500
73, 23676.33, 27755.39, -13339.90, -20005.01, -13803.57, -6262.87, 105152.57, 35903.81, 0.000, 0.000, 0.000, 18:47:31.500
74, 23681.67, 27773.58, -13192.09, -20053.58, -13876.54, -6314.39, 105181.34, 35950.12, 0.000, 0.000, 0.000, 18:47:31.974
75, 23670.94, 27755.03, -13451.48, -20009.53, -13877.35, -6278.74, 105157.55, 35902.73, 0.000, 0.000, 0.000, 18:47:31.974
76, 23660.57, 27726.09, -13578.55, -19923.76, -13791.61, -6200.51, 105116.59, 35824.82, 0.000, 0.000, 0.000, 18:47:31.975
77, 23665.20, 27726.69, -13573.86, -19907.45, -13735.57, -6188.46, 105117.68, 35824.12, 0.000, 0.000, 0.000, 18:47:31.975
78, 23679.41, 27756.60, -13418.76, -19979.96, -13790.15, -6266.00, 105161.87, 35900.23, 0.000, 0.000, 0.000, 18:47:31.975
79, 23681.43, 27771.35, -13215.29, -20031.39, -13870.78, -6325.63, 105187.04, 35943.26, 0.000, 0.000, 0.000, 18:47:31.975
80, 23670.97, 27753.42, -13494.89, -19984.22, -13869.35, -6304.91, 105163.97, 35896.81, 0.000, 0.000, 0.000, 18:47:31.975
81, 23662.38, 27726.20, -13569.65, -19897.05, -13793.86, -6239.51, 105124.70, 35820.52, 0.000, 0.000, 0.000, 18:47:31.975
82, 23665.11, 27724.86, -13564.20, -19892.92, -13744.85, -6230.46, 105123.73, 35817.53, -0.030, 0.984, 0.032, 18:47:31.975
83, 23677.83, 27753.22, -13389.83, -19980.29, -13800.64, -6316.63, 105166.41, 35892.09, 0.000, 0.000, 0.000, 18:47:31.975
84, 23682.14, 27770.21, -13208.14, -20037.44, -13887.03, -6386.16, 105194.08, 35937.76, 0.000, 0.000, 0.000, 18:47:31.975
85, 23673.00, 27753.27, -13473.94, -19997.97, -13888.73, -6355.85, 105171.99, 35892.45, 0.000, 0.000, 0.000, 18:47:31.975
86, 23664.51, 27726.06, -13583.20, -19915.25, -13810.32, -6277.20, 105132.73, 35816.08, 0.000, 0.000, 0.000, 18:47:31.976
87, 23667.90, 27725.17, -13579.11, -19906.62, -13758.93, -6256.36, 105132.32, 35813.39, 0.000, 0.000, 0.000, 18:47:31.976
88, 23680.55, 27753.74, -13402.04, -19984.94, -13807.25, -6321.61, 105175.23, 35888.14, 0.000, 0.000, 0.000, 18:47:31.976
89, 23684.15, 27770.50, -13211.20, -20032.48, -13881.86, -6361.31, 105202.75, 35934.03, 0.000, 0.000, 0.000, 18:47:31.976
90, 23673.80, 27753.11, -13501.15, -19993.90, -13884.14, -6321.32, 105180.51, 35888.88, 0.000, 0.000, 0.000, 18:47:31.976
91, 23664.33, 27725.42, -13578.77, -19915.61, -13805.24, -6233.52, 105140.73, 35812.12, 0.000, 0.000, 0.000, 18:47:31.976
92, 23666.67, 27723.54, -13566.68, -19900.79, -13738.68, -6201.94, 105139.27, 35808.01, -0.026, 0.990, 0.036, 18:47:31.976
93, 23677.29, 27749.78, -13421.84, -19977.47, -13777.70, -6268.64, 105179.86, 35880.34, 0.000, 0.000, 0.000, 18:47:31.976
94, 23681.25, 27766.99, -13219.69, -20035.16, -13857.01, -6327.51, 105207.89, 35926.92, 0.000, 0.000, 0.000, 18:47:31.976
95, 23672.17, 27751.14, -13502.24, -19998.80, -13858.39, -6294.99, 105187.26, 35883.73, 0.000, 0.000, 0.000, 18:47:31.977
96, 23661.36, 27721.86, -13570.35, -19916.88, -13780.72, -6207.44, 105145.80, 35805.17, 0.000, 0.000, 0.000, 18:47:31.977
97, 23664.86, 27720.90, -13562.28, -19905.72, -13726.41, -6186.16, 105145.20, 35801.53, 0.000, 0.000, 0.000, 18:47:31.977
98, 23677.80, 27749.38, -13376.42, -19988.18, -13785.91, -6269.57, 105187.89, 35876.02, 0.000, 0.000, 0.000, 18:47:31.977
99, 23682.07, 27766.72, -13192.83, -20051.35, -13880.81, -6343.20, 105216.27, 35923.12, 0.000, 0.000, 0.000, 18:47:31.977
100, 23673.92, 27751.32, -13434.20, -20014.06, -13881.77, -6321.83, 105196.11, 35880.43, 0.000, 0.000, 0.000, 18:47:31.977
101, 23664.75, 27723.49, -13587.45, -19925.06, -13806.20, -6244.16, 105156.33, 35803.40, -0.028, 0.990, 0.036, 18:47:31.977
102, 23666.74, 27720.79, -13570.50, -19913.62, -13755.87, -6234.44, 105153.76, 35797.79, 0.000, 0.000, 0.000, 18:47:31.977
103, 23677.18, 27746.83, -13340.44, -19990.84, -13814.70, -6321.43, 105193.84, 35869.56, 0.000, 0.000, 0.000, 18:47:31.977
104, 23681.63, 27764.40, -13192.16, -20042.94, -13895.79, -6388.84, 105222.48, 35917.06, 0.000, 0.000, 0.000, 18:47:31.978
105, 23673.54, 27748.75, -13428.61, -20002.46, -13902.56, -6363.25, 105202.04, 35874.28, 0.000, 0.000, 0.000, 18:47:31.978
106, 23666.54, 27722.29, -13596.07, -19916.01, -13822.83, -6292.11, 105163.55, 35798.38, 0.000, 0.000, 0.000, 18:47:31.978
107, 23668.80, 27719.47, -13585.75, -19907.71, -13765.52, -6279.72, 105160.59, 35792.09, 0.000, 0.000, 0.000, 18:47:31.978
108, 23681.45, 27747.30, -13358.94, -19986.04, -13815.97, -6350.11, 105202.57, 35865.59, 0.000, 0.000, 0.000, 18:47:31.978
109, 23686.59, 27765.22, -13193.14, -20039.43, -13896.24, -6415.55, 105231.59, 35913.80, 0.000, 0.000, 0.000, 18:47:31.978
110, 23676.78, 27747.75, -13415.67, -20000.94, -13897.87, -6386.25, 105209.34, 35869.65, 0.000, 0.000, 0.000, 18:47:31.978
111, 23667.19, 27718.76, -13590.31, -19916.86, -13815.52, -6304.96, 105168.48, 35791.15, -0.022, 0.988, 0.038, 18:47:31.979
112, 23671.03, 27717.37, -13582.31, -19903.20, -13760.92, -6281.22, 105167.10, 35785.84, 0.000, 0.000, 0.000, 18:47:31.979
113, 23681.65, 27743.41, -13383.31, -19977.68, -13807.19, -6349.73, 105207.29, 35857.36, 0.000, 0.000, 0.000, 18:47:31.979
114, 23686.79, 27761.98, -13196.89, -20037.64, -13885.51, -6411.64, 105237.06, 35906.54, 0.000, 0.000, 0.000, 18:47:31.979
115, 23677.72, 27745.96, -13437.80, -19995.11, -13883.70, -6369.11, 105216.52, 35863.93, 0.000, 0.000, 0.000, 18:47:31.979
116, 23667.01, 27716.25, -13574.26, -19899.51, -13793.44, -6282.20, 105174.90, 35784.70, 0.000, 0.000, 0.000, 18:47:31.979
117, 23669.24, 27713.17, -13569.39, -19880.91, -13727.86, -6263.16, 105171.68, 35777.39, 0.000, 0.000, 0.000, 18:47:31.979
118, 23680.58, 27739.86, -13406.31, -19963.64, -13779.60, -6338.02, 105212.45, 35849.43, 0.000, 0.000, 0.000, 18:47:31.979
119, 23687.08, 27760.17, -13208.81, -20027.14, -13866.06, -6411.15, 105243.84, 35900.50, 0.000, 0.000, 0.000, 18:47:31.980
120, 23676.76, 27742.94, -13483.44, -19990.75, -13874.38, -6394.48, 105222.38, 35857.23, 0.000, 0.000, 0.000, 18:47:31.980
121, 23665.94, 27713.48, -13580.74, -19910.98, -13797.75, -6322.06, 105181.07, 35777.99, -0.022, 0.986, 0.034, 18:47:31.980
122, 23666.76, 27709.48, -13575.73, -19903.40, -13746.34, -6321.19, 105176.60, 35769.14, 0.000, 0.000, 0.000, 18:47:31.980
123, 23678.48, 27736.57, -13422.18, -19987.49, -13803.01, -6432.56, 105217.91, 35841.56, 0.000, 0.000, 0.000, 18:47:31.980
124, 23682.21, 27754.34, -13203.76, -20055.46, -13896.68, -6533.48, 105247.23, 35890.33, 0.000, 0.000, 0.000, 18:47:31.980
125, 23672.15, 27737.87, -13383.55, -20015.47, -13901.91, -6517.99, 105226.24, 35847.59, 0.000, 0.000, 0.000, 18:47:31.980
126, 23663.25, 27710.37, -13593.15, -19932.32, -13824.93, -6458.09, 105186.63, 35770.03, 0.000, 0.000, 0.000, 18:47:31.980
127, 23665.45, 27707.65, -13587.56, -19923.47, -13772.41, -6456.90, 105183.57, 35762.41, 0.000, 0.000, 0.000, 18:47:31.980
128, 23677.43, 27734.96, -13341.80, -19992.09, -13823.23, -6532.97, 105224.88, 35834.90, 0.000, 0.000, 0.000, 18:47:31.981
129, 23682.86, 27754.03, -13200.43, -20048.53, -13910.58, -6601.14, 105255.45, 35885.23, 0.000, 0.000, 0.000, 18:47:31.981
130, 23674.03, 27738.60, -13417.28, -20008.59, -13911.70, -6575.99, 105235.63, 35843.91, 0.000, 0.000, 0.000, 18:47:31.981
131, 23662.74, 27708.54, -13605.01, -19921.86, -13826.39, -6499.42, 105193.32, 35763.75, -0.026, 0.986, 0.032, 18:47:31.981
132, 23664.71, 27704.83, -13580.54, -19911.98, -13771.00, -6484.62, 105189.05, 35754.52, 0.000, 0.000, 0.000, 18:47:31.981
133, 23677.94, 27732.66, -13325.55, -19993.19, -13818.97, -6550.02, 105230.76, 35827.34, 0.000, 0.000, 0.000, 18:47:31.981
134, 23682.66, 27750.47, -13206.10, -20041.78, -13894.83, -6601.27, 105260.02, 35876.65, 0.000, 0.000, 0.000, 18:47:31.981
135, 23675.26, 27736.08, -13447.46, -19996.56, -13894.40, -6565.56, 105241.28, 35836.80, 0.000, 0.000, 0.000, 18:47:31.981
136, 23663.66, 27705.01, -13598.31, -19909.86, -13813.42, -6479.03, 105197.90, 35755.55, 0.000, 0.000, 0.000, 18:47:31.982
137, 23667.41, 27702.26, -13584.90, -19893.70, -13753.23, -6450.53, 105194.48, 35747.03, 0.000, 0.000, 0.000, 18:47:31.982
138, 23679.44, 27728.48, -13391.09, -19970.88, -13801.00, -6523.80, 105234.60, 35818.13, 0.000, 0.000, 0.000, 18:47:31.982
139, 23684.36, 27746.78, -13198.35, -20026.29, -13879.45, -6574.16, 105264.22, 35868.13, 0.000, 0.000, 0.000, 18:47:31.982
140, 23675.82, 27731.50, -13434.16, -19987.94, -13881.30, -6532.88, 105244.48, 35827.32, 0.000, 0.000, 0.000, 18:47:31.982
141, 23667.08, 27703.18, -13588.94, -19907.83, -13798.56, -6448.34, 105204.00, 35748.84, -0.020, 0.992, 0.036, 18:47:31.982
142, 23671.03, 27700.83, -13580.79, -19889.74, -13740.26, -6432.52, 105200.78, 35740.30, 0.000, 0.000, 0.000, 18:47:31.983
143, 23682.77, 27727.14, -13431.81, -19970.34, -13788.03, -6521.97, 105240.88, 35811.16, 0.000, 0.000, 0.000, 18:47:31.983
144, 23688.22, 27746.09, -13208.56, -20035.92, -13870.02, -6606.37, 105271.52, 35862.05, 0.000, 0.000, 0.000, 18:47:31.983
145, 23677.74, 27729.13, -13431.86, -20003.45, -13878.40, -6593.85, 105250.43, 35820.21, 0.000, 0.000, 0.000, 18:47:31.983
146, 23667.61, 27699.76, -13600.90, -19919.27, -13807.77, -6520.05, 105208.74, 35740.50, 0.000, 0.000, 0.000, 18:47:31.983
147, 23671.08, 27696.87, -13586.64, -19899.45, -13749.79, -6500.62, 105204.85, 35730.92, 0.000, 0.000, 0.000, 18:47:31.983
148, 23681.76, 27722.00, -13366.12, -19977.97, -13803.19, -6592.38, 105243.68, 35800.54, 0.000, 0.000, 0.000, 18:47:31.983
149, 23688.49, 27742.29, -13209.08, -20037.09, -13894.83, -6670.56, 105275.44, 35853.16, 0.000, 0.000, 0.000, 18:47:31.983
150, 23680.44, 27727.74, -13417.71, -19989.63, -13896.86, -6644.32, 105256.73, 35813.82, -0.020, 0.992, 0.026, 18:47:31.983
151, 23670.92, 27699.00, -13598.78, -19899.06, -13814.72, -6557.22, 105215.70, 35734.58, 0.000, 0.000, 0.000, 18:47:31.984
152, 23673.78, 27695.29, -13591.80, -19879.93, -13749.70, -6525.59, 105211.09, 35723.96, 0.000, 0.000, 0.000, 18:47:31.984
153, 23685.52, 27721.57, -13405.82, -19957.96, -13794.11, -6600.78, 105251.08, 35794.62, 0.000, 0.000, 0.000, 18:47:31.984
154, 23689.70, 27739.65, -13205.75, -20021.08, -13881.97, -6673.47, 105280.71, 35845.20, 0.000, 0.000, 0.000, 18:47:31.985
155, 23680.53, 27723.94, -13428.41, -19979.13, -13883.23, -6642.92, 105260.93, 35805.14, 0.000, 0.000, 0.000, 18:47:31.985
156, 23671.73, 27695.69, -13580.65, -19883.37, -13797.42, -6554.43, 105220.37, 35726.40, 0.000, 0.000, 0.000, 18:47:31.985
157, 23674.92, 27692.56, -13575.09, -19863.84, -13734.41, -6536.41, 105216.07, 35715.83, 0.000, 0.000, 0.000, 18:47:31.985
158, 23686.66, 27719.20, -13480.49, -19940.91, -13779.87, -6613.03, 105256.17, 35786.55, 0.000, 0.000, 0.000, 18:47:31.985
159, 23689.58, 27736.41, -13251.59, -20000.14, -13868.52, -6681.56, 105284.89, 35836.24, 0.000, 0.000, 0.000, 18:47:31.985
160, 23681.54, 27722.60, -13506.53, -19963.10, -13868.85, -6651.86, 105267.10, 35798.20, -0.022, 0.992, 0.032, 18:47:31.986
161, 23670.38, 27692.69, -13586.33, -19881.05, -13796.57, -6574.16, 105224.77, 35717.39, 0.000, 0.000, 0.000, 18:47:31.986
162, 23671.37, 27687.37, -13574.37, -19864.55, -13734.32, -6548.46, 105217.84, 35703.96, 0.000, 0.000, 0.000, 18:47:31.986
163, 23682.75, 27713.28, -13417.73, -19948.30, -13780.43, -6628.45, 105257.09, 35773.63, 0.000, 0.000, 0.000, 18:47:31.986
164, 23689.41, 27734.09, -13204.94, -20017.04, -13868.74, -6708.05, 105289.37, 35826.94, 0.000, 0.000, 0.000, 18:47:31.986
165, 23681.92, 27720.37, -13427.99, -19991.15, -13879.90, -6694.41, 105271.57, 35789.14, 0.000, 0.000, 0.000, 18:47:31.986
166, 23669.09, 27688.02, -13601.10, -19909.62, -13799.21, -6616.27, 105226.60, 35705.75, 0.000, 0.000, 0.000, 18:47:31.986
167, 23672.58, 27684.71, -13591.09, -19883.62, -13729.74, -6584.82, 105221.52, 35693.79, 0.000, 0.000, 0.000, 18:47:31.986
168, 23684.73, 27711.24, -13438.63, -19960.20, -13772.23, -6662.94, 105261.36, 35763.68, 0.000, 0.000, 0.000, 18:47:31.987
169, 23689.27, 27730.18, -13213.37, -20027.19, -13867.85, -6750.83, 105291.76, 35815.29, 0.000, 0.000, 0.000, 18:47:31.987
170, 23680.80, 27716.10, -13417.84, -19989.95, -13882.09, -6731.65, 105273.45, 35777.07, -0.022, 0.994, 0.038, 18:47:31.987
171, 23668.62, 27684.67, -13603.81, -19902.82, -13804.50, -6656.08, 105229.20, 35694.19, 0.000, 0.000, 0.000, 18:47:31.987
172, 23673.60, 27682.59, -13605.08, -19884.00, -13745.70, -6634.44, 105225.05, 35682.82, 0.000, 0.000, 0.000, 18:47:31.987
173, 23687.53, 27710.31, -13434.94, -19952.64, -13782.31, -6701.54, 105265.73, 35753.65, 0.000, 0.000, 0.000, 18:47:31.987
174, 23692.42, 27728.70, -13214.82, -20022.00, -13866.51, -6778.97, 105295.58, 35804.77, 0.000, 0.000, 0.000, 18:47:31.987
175, 23684.73, 27714.66, -13431.34, -19989.63, -13878.78, -6765.76, 105277.25, 35766.72, 0.000, 0.000, 0.000, 18:47:31.987
176, 23673.13, 27683.51, -13593.68, -19893.63, -13792.12, -6670.88, 105233.22, 35683.75, 0.000, 0.000, 0.000, 18:47:31.987
177, 23675.32, 27678.14, -13585.14, -19867.88, -13714.07, -6631.07, 105225.95, 35668.89, 0.000, 0.000, 0.000, 18:47:31.988
178, 23687.19, 27703.89, -13496.34, -19941.09, -13754.46, -6700.31, 105264.69, 35737.78, 0.000, 0.000, 0.000, 18:47:31.988
179, 23693.99, 27724.63, -13294.46, -19993.88, -13838.12, -6757.36, 105296.63, 35791.27, 0.000, 0.000, 0.000, 18:47:31.988
180, 23686.32, 27711.20, -13536.82, -19950.32, -13850.24, -6724.12, 105279.20, 35754.16, -0.022, 0.996, 0.036, 18:47:31.988
181, 23675.06, 27680.20, -13571.91, -19862.29, -13785.73, -6653.11, 105235.02, 35671.28, 0.000, 0.000, 0.000, 18:47:31.988
182, 23679.68, 27677.25, -13565.85, -19840.84, -13731.50, -6633.66, 105229.77, 35658.18, 0.000, 0.000, 0.000, 18:47:31.988
183, 23690.48, 27701.77, -13491.42, -19922.53, -13780.59, -6720.14, 105267.08, 35725.30, 0.000, 0.000, 0.000, 18:47:31.989
184, 23694.35, 27719.72, -13231.41, -19994.57, -13869.23, -6798.89, 105296.18, 35776.11, 0.000, 0.000, 0.000, 18:47:31.989
185, 23686.95, 27706.35, -13469.70, -19969.76, -13882.89, -6785.12, 105278.59, 35739.07, 0.000, 0.000, 0.000, 18:47:31.989
186, 23679.06, 27678.77, -13601.68, -19885.43, -13805.73, -6710.91, 105237.73, 35659.14, 0.000, 0.000, 0.000, 18:47:31.989
187, 23682.05, 27674.07, -13588.70, -19866.77, -13738.86, -6681.47, 105230.53, 35643.72, 0.000, 0.000, 0.000, 18:47:31.989
188, 23692.89, 27698.59, -13419.74, -19949.38, -13782.46, -6751.61, 105267.73, 35710.46, 0.000, 0.000, 0.000, 18:47:31.989
189, 23697.86, 27717.44, -13211.69, -20014.91, -13866.17, -6825.84, 105297.84, 35762.43, 0.000, 0.000, 0.000, 18:47:31.990
190, 23691.35, 27705.01, -13421.13, -19981.88, -13875.85, -6807.09, 105281.14, 35726.38, -0.022, 0.986, 0.034, 18:47:31.990
191, 23682.03, 27675.84, -13601.01, -19892.72, -13797.98, -6722.60, 105238.63, 35644.48, 0.000, 0.000, 0.000, 18:47:31.990
192, 23683.26, 27669.18, -13594.82, -19867.50, -13732.42, -6686.52, 105229.15, 35626.46, 0.000, 0.000, 0.000, 18:47:31.990
193, 23694.88, 27694.41, -13471.71, -19939.01, -13763.40, -6746.52, 105267.08, 35694.08, 0.000, 0.000, 0.000, 18:47:31.990
194, 23699.11, 27712.72, -13233.04, -20003.80, -13853.48, -6814.38, 105296.65, 35745.82, 0.000, 0.000, 0.000, 18:47:32.429
195, 23691.19, 27698.75, -13483.89, -19973.23, -13871.00, -6797.43, 105278.45, 35708.77, 0.000, 0.000, 0.000, 18:47:32.430
196, 23683.01, 27670.70, -13599.00, -19886.88, -13790.87, -6710.37, 105236.93, 35628.14, 0.000, 0.000, 0.000, 18:47:32.430
197, 23686.81, 27666.83, -13588.32, -19862.45, -13721.15, -6677.43, 105230.18, 35612.83, 0.000, 0.000, 0.000, 18:47:32.430
198, 23697.77, 27691.82, -13528.33, -19938.20, -13751.49, -6734.87, 105267.95, 35680.49, 0.000, 0.000, 0.000, 18:47:32.431
199, 23700.78, 27709.46, -13284.96, -20002.78, -13829.96, -6792.11, 105296.98, 35731.96, -0.022, 0.988, 0.030, 18:47:32.432
200, 23694.64, 27698.06, -13533.67, -19966.41, -13840.96, -6768.13, 105281.41, 35697.68, 0.000, 0.000, 0.000, 18:47:32.432
201, 23685.94, 27669.87, -13584.54, -19875.64, -13769.12, -6696.25, 105239.38, 35616.59, 0.000, 0.000, 0.000, 18:47:32.433
202, 23688.29, 27664.24, -13570.50, -19846.43, -13710.60, -6671.79, 105230.76, 35599.15, 0.000, 0.000, 0.000, 18:47:32.434
203, 23698.53, 27688.24, -13536.33, -19911.25, -13755.78, -6739.81, 105267.50, 35665.67, 0.000, 0.000, 0.000, 18:47:32.434
204, 23704.90, 27709.39, -13342.38, -19972.65, -13849.61, -6818.15, 105300.16, 35720.97, 0.000, 0.000, 0.000, 18:47:32.434
205, 23698.66, 27698.13, -13576.67, -19937.87, -13860.79, -6804.83, 105284.94, 35687.04, 0.000, 0.000, 0.000, 18:47:32.435
206, 23685.88, 27666.68, -13587.22, -19858.96, -13794.60, -6745.47, 105239.67, 35602.48, 0.000, 0.000, 0.000, 18:47:32.435
207, 23688.18, 27661.76, -13578.80, -19841.22, -13734.61, -6728.30, 105231.83, 35585.41, 0.000, 0.000, 0.000, 18:47:32.436
208, 23698.73, 27686.39, -13468.47, -19926.80, -13778.15, -6805.88, 105269.47, 35652.62, 0.000, 0.000, 0.000, 18:47:32.437
