%OpenBCI Raw EEG Data
%
%Sample Rate = 250.0 Hz
%First Column = SampleIndex
%Last Column = Timestamp 
%Other Columns = EEG data in microvolts followed by Accel Data (in G) interleaved with Aux Data
0, 0.00, 0.00, 0.00, 0.00, 0.00, 0.00, 0.00, 0.00, 0.000, 0.000, 0.000, 19:03:35.081
1, 11326.17, -17593.26, -9217.57, -11364.12, -9847.28, -15074.15, 141012.09, 147303.36, -0.102, 0.982, 0.066, 19:03:35.557
2, 11183.49, -17610.09, -9242.92, -11302.07, -9818.47, -15005.66, 140977.83, 147238.33, 0.000, 0.000, 0.000, 19:03:35.557
3, 11209.67, -17625.22, -9182.21, -11250.59, -9748.60, -14945.81, 140943.61, 147173.94, 0.000, 0.000, 0.000, 19:03:35.557
4, 11369.53, -17618.11, -9112.63, -11284.34, -9726.70, -14972.76, 140960.25, 147202.95, 0.000, 0.000, 0.000, 19:03:35.557
5, 11421.27, -17600.59, -9139.99, -11365.46, -9790.82, -15050.30, 141005.34, 147283.86, 0.000, 0.000, 0.000, 19:03:35.557
6, 11293.58, -17598.29, -9226.87, -11387.86, -9856.56, -15077.19, 141019.88, 147307.80, 0.000, 0.000, 0.000, 19:03:35.557
7, 11165.88, -17617.91, -9258.34, -11324.94, -9836.02, -15020.80, 140988.83, 147246.31, 0.000, 0.000, 0.000, 19:03:35.558
8, 11212.08, -17631.70, -9188.38, -11262.98, -9756.56, -14958.88, 140953.50, 147180.52, -0.104, 0.988, 0.044, 19:03:35.558
9, 11383.81, -17622.36, -9114.17, -11290.87, -9735.19, -14989.33, 140967.94, 147206.86, 0.000, 0.000, 0.000, 19:03:35.558
10, 11439.64, -17604.55, -9141.42, -11364.92, -9802.40, -15069.57, 141013.38, 147288.17, 0.000, 0.000, 0.000, 19:03:35.558
11, 11322.25, -17601.86, -9220.07, -11375.47, -9861.12, -15092.10, 141028.58, 147313.28, 0.000, 0.000, 0.000, 19:03:35.558
12, 11193.75, -17620.55, -9251.10, -11307.59, -9843.80, -15038.83, 140997.34, 147251.64, 0.000, 0.000, 0.000, 19:03:35.558
13, 11232.11, -17634.43, -9190.57, -11252.23, -9778.87, -14988.95, 140961.34, 147184.91, 0.000, 0.000, 0.000, 19:03:35.558
14, 11397.71, -17627.46, -9123.96, -11285.51, -9763.84, -15018.99, 140977.14, 147212.39, 0.000, 0.000, 0.000, 19:03:35.559
15, 11455.40, -17610.34, -9152.93, -11361.75, -9826.59, -15092.88, 141023.44, 147294.38, 0.000, 0.000, 0.000, 19:03:35.559
16, 11335.08, -17607.50, -9230.53, -11376.34, -9880.25, -15109.26, 141039.22, 147320.16, 0.000, 0.000, 0.000, 19:03:35.559
17, 11204.77, -17622.52, -9248.75, -11306.76, -9848.25, -15039.91, 141004.72, 147255.36, -0.100, 0.982, 0.032, 19:03:35.559
18, 11243.13, -17638.95, -9175.86, -11243.24, -9772.76, -14972.74, 140971.28, 147191.11, 0.000, 0.000, 0.000, 19:03:35.559
19, 11407.79, -17631.03, -9097.90, -11271.18, -9744.18, -14990.40, 140985.97, 147216.92, 0.000, 0.000, 0.000, 19:03:35.559
20, 11468.68, -17610.47, -9119.60, -11345.30, -9798.27, -15058.01, 141028.91, 147295.75, 0.000, 0.000, 0.000, 19:03:35.559
21, 11349.08, -17609.20, -9191.95, -11358.80, -9850.44, -15072.52, 141046.95, 147324.33, 0.000, 0.000, 0.000, 19:03:35.560
22, 11216.73, -17626.43, -9209.34, -11294.54, -9827.35, -15010.07, 141015.05, 147262.77, 0.000, 0.000, 0.000, 19:03:35.560
23, 11252.23, -17639.17, -9128.36, -11235.15, -9749.90, -14941.00, 140977.55, 147194.45, 0.000, 0.000, 0.000, 19:03:35.560
24, 11414.43, -17632.15, -9042.00, -11262.95, -9720.04, -14962.39, 140992.36, 147220.20, 0.000, 0.000, 0.000, 19:03:35.560
25, 11464.41, -17613.02, -9059.43, -11342.42, -9779.27, -15041.43, 141036.63, 147300.52, 0.000, 0.000, 0.000, 19:03:35.560
26, 11335.28, -17611.47, -9134.89, -11367.14, -9838.70, -15066.95, 141054.77, 147329.80, 0.000, 0.000, 0.000, 19:03:35.560
27, 11198.40, -17626.07, -9157.02, -11304.48, -9816.82, -15005.64, 141020.59, 147266.23, -0.100, 0.980, 0.030, 19:03:35.560
28, 11227.57, -17641.90, -9093.61, -11245.07, -9743.15, -14945.90, 140985.59, 147200.16, 0.000, 0.000, 0.000, 19:03:35.561
29, 11386.38, -17634.72, -9027.65, -11276.50, -9725.06, -14978.93, 140999.14, 147224.19, 0.000, 0.000, 0.000, 19:03:35.561
30, 11445.59, -17617.98, -9058.98, -11357.08, -9789.37, -15059.17, 141045.61, 147306.58, 0.000, 0.000, 0.000, 19:03:35.561
31, 11325.85, -17616.10, -9147.99, -11378.18, -9853.30, -15087.00, 141064.11, 147336.56, 0.000, 0.000, 0.000, 19:03:35.561
32, 11185.35, -17632.49, -9182.95, -11316.53, -9836.69, -15031.59, 141032.00, 147275.14, 0.000, 0.000, 0.000, 19:03:35.561
33, 11217.25, -17646.99, -9118.73, -11252.85, -9760.96, -14970.88, 140995.42, 147206.97, 0.000, 0.000, 0.000, 19:03:35.561
34, 11383.09, -17640.06, -9048.30, -11276.46, -9738.48, -14998.71, 141009.02, 147230.58, 0.000, 0.000, 0.000, 19:03:35.562
35, 11448.63, -17620.97, -9071.43, -11350.30, -9799.03, -15076.90, 141053.39, 147311.02, 0.000, 0.000, 0.000, 19:03:35.562
36, 11336.45, -17618.49, -9153.49, -11367.90, -9860.20, -15103.23, 141072.11, 147341.44, 0.000, 0.000, 0.000, 19:03:35.562
37, 11199.21, -17634.81, -9184.02, -11306.47, -9837.76, -15044.24, 141040.39, 147280.63, -0.098, 0.980, 0.032, 19:03:35.563
38, 11225.65, -17648.24, -9120.41, -11241.41, -9760.20, -14978.71, 141002.31, 147210.95, 0.000, 0.000, 0.000, 19:03:35.563
39, 11388.93, -17641.09, -9044.52, -11263.60, -9728.13, -14994.82, 141014.89, 147233.14, 0.000, 0.000, 0.000, 19:03:35.563
40, 11458.51, -17623.08, -9064.75, -11339.13, -9784.12, -15061.97, 141060.31, 147314.47, 0.000, 0.000, 0.000, 19:03:35.564
41, 11345.57, -17619.66, -9144.61, -11358.20, -9841.18, -15079.04, 141078.69, 147344.70, 0.000, 0.000, 0.000, 19:03:35.564
42, 11214.65, -17636.46, -9170.34, -11287.54, -9808.95, -15007.72, 141048.20, 147285.42, 0.000, 0.000, 0.000, 19:03:35.564
43, 11246.55, -17652.49, -9106.21, -11220.33, -9728.51, -14937.78, 141012.53, 147218.00, 0.000, 0.000, 0.000, 19:03:35.564
44, 11405.33, -17646.84, -9038.08, -11247.33, -9703.70, -14963.17, 141025.78, 147240.61, 0.000, 0.000, 0.000, 19:03:35.564
45, 11470.31, -17629.07, -9064.73, -11330.93, -9765.01, -15042.86, 141071.27, 147322.02, 0.000, 0.000, 0.000, 19:03:35.564
46, 11355.13, -17624.93, -9152.84, -11358.58, -9825.07, -15067.78, 141089.50, 147352.75, 0.000, 0.000, 0.000, 19:03:35.565
47, 11217.87, -17639.48, -9185.23, -11295.23, -9800.52, -15003.03, 141057.11, 147291.83, -0.100, 0.980, 0.028, 19:03:35.565
48, 11241.68, -17656.02, -9126.95, -11237.74, -9727.01, -14940.87, 141021.23, 147223.78, 0.000, 0.000, 0.000, 19:03:35.565
49, 11394.38, -17650.50, -9059.72, -11271.58, -9704.84, -14970.13, 141033.94, 147245.28, 0.000, 0.000, 0.000, 19:03:35.565
50, 11455.54, -17632.06, -9088.26, -11352.18, -9764.09, -15050.61, 141078.80, 147326.05, 0.000, 0.000, 0.000, 19:03:35.566
51, 11344.07, -17627.23, -9173.36, -11375.74, -9825.78, -15077.59, 141097.08, 147357.14, 0.000, 0.000, 0.000, 19:03:35.566
52, 11206.78, -17643.73, -9209.59, -11313.89, -9812.33, -15026.09, 141066.73, 147298.50, 0.000, 0.000, 0.000, 19:03:35.566
53, 11229.56, -17659.08, -9151.70, -11247.02, -9741.38, -14967.15, 141029.20, 147228.61, 0.000, 0.000, 0.000, 19:03:35.566
54, 11389.24, -17654.44, -9082.88, -11270.78, -9715.50, -14991.47, 141042.09, 147250.00, 0.000, 0.000, 0.000, 19:03:35.566
55, 11463.07, -17637.40, -9104.25, -11346.26, -9774.91, -15069.30, 141088.44, 147332.38, 0.000, 0.000, 0.000, 19:03:35.566
56, 11353.77, -17631.48, -9187.44, -11369.10, -9836.91, -15094.96, 141106.25, 147363.30, 0.000, 0.000, 0.000, 19:03:35.566
57, 11207.99, -17646.43, -9224.21, -11312.35, -9825.98, -15041.94, 141074.91, 147303.91, -0.100, 0.976, 0.026, 19:03:35.567
58, 11223.55, -17662.86, -9164.26, -11250.12, -9753.94, -14976.99, 141038.11, 147234.73, 0.000, 0.000, 0.000, 19:03:35.567
59, 11384.44, -17657.07, -9088.84, -11274.76, -9721.60, -14992.63, 141049.30, 147254.09, 0.000, 0.000, 0.000, 19:03:35.567
60, 11454.60, -17639.41, -9103.66, -11349.19, -9773.95, -15059.13, 141095.19, 147335.77, 0.000, 0.000, 0.000, 19:03:35.567
61, 11345.05, -17635.57, -9178.01, -11369.30, -9831.55, -15076.94, 141115.47, 147369.77, 0.000, 0.000, 0.000, 19:03:35.567
62, 11207.39, -17651.44, -9207.49, -11306.41, -9813.33, -15015.23, 141085.41, 147312.14, 0.000, 0.000, 0.000, 19:03:35.567
63, 11229.23, -17667.36, -9140.25, -11236.94, -9734.39, -14943.04, 141047.95, 147241.98, 0.000, 0.000, 0.000, 19:03:35.567
64, 11391.54, -17661.39, -9062.09, -11254.71, -9699.18, -14956.49, 141058.28, 147259.97, 0.000, 0.000, 0.000, 19:03:35.567
65, 11466.11, -17643.55, -9080.93, -11330.14, -9755.91, -15031.12, 141103.77, 147341.53, 0.000, 0.000, 0.000, 19:03:35.567
66, 11356.79, -17638.63, -9160.68, -11351.22, -9819.48, -15057.43, 141123.72, 147375.58, -0.106, 0.978, 0.026, 19:03:35.568
67, 11215.17, -17653.94, -9191.60, -11288.06, -9805.08, -14999.56, 141093.95, 147318.02, 0.000, 0.000, 0.000, 19:03:35.570
68, 11230.95, -17668.49, -9130.71, -11227.66, -9734.74, -14936.98, 141054.72, 147245.78, 0.000, 0.000, 0.000, 19:03:35.570
69, 11387.23, -17663.13, -9059.90, -11253.25, -9707.23, -14958.55, 141064.84, 147263.03, 0.000, 0.000, 0.000, 19:03:35.570
70, 11465.44, -17646.46, -9076.24, -11330.70, -9760.69, -15032.87, 141111.50, 147345.44, 0.000, 0.000, 0.000, 19:03:35.571
71, 11357.52, -17641.09, -9157.84, -11358.31, -9823.28, -15061.19, 141131.55, 147379.75, 0.000, 0.000, 0.000, 19:03:35.571
72, 11210.03, -17657.68, -9200.33, -11305.24, -9814.94, -15008.57, 141102.95, 147323.92, 0.000, 0.000, 0.000, 19:03:35.571
73, 11232.47, -17672.79, -9148.43, -11242.03, -9746.46, -14944.62, 141063.95, 147251.67, 0.000, 0.000, 0.000, 19:03:35.571
74, 11396.06, -17666.62, -9080.26, -11265.73, -9717.00, -14964.16, 141072.63, 147267.34, 0.000, 0.000, 0.000, 19:03:35.571
75, 11472.68, -17648.24, -9097.36, -11343.62, -9772.88, -15043.53, 141117.56, 147348.03, 0.000, 0.000, 0.000, 19:03:35.571
76, 11368.86, -17643.82, -9176.40, -11367.94, -9835.57, -15071.80, 141139.33, 147384.36, -0.104, 0.976, 0.028, 19:03:35.572
77, 11223.79, -17661.88, -9215.96, -11313.13, -9826.63, -15019.97, 141112.73, 147330.88, 0.000, 0.000, 0.000, 19:03:35.572
78, 11235.55, -17676.16, -9161.80, -11250.15, -9757.52, -14955.82, 141072.38, 147257.22, 0.000, 0.000, 0.000, 19:03:35.572
79, 11398.29, -17669.25, -9094.66, -11271.96, -9723.88, -14970.68, 141079.44, 147270.55, 0.000, 0.000, 0.000, 19:03:35.572
80, 11469.01, -17654.57, -9120.50, -11353.14, -9780.27, -15044.94, 141127.69, 147354.30, 0.000, 0.000, 0.000, 19:03:35.572
81, 11356.43, -17649.52, -9205.03, -11383.77, -9845.56, -15075.04, 141149.30, 147390.70, 0.000, 0.000, 0.000, 19:03:35.572
82, 11206.11, -17664.76, -9242.45, -11331.84, -9834.88, -15018.61, 141120.48, 147335.39, 0.000, 0.000, 0.000, 19:03:35.572
83, 11217.80, -17680.65, -9178.27, -11263.65, -9758.15, -14945.87, 141081.64, 147263.09, 0.000, 0.000, 0.000, 19:03:35.572
84, 11381.49, -17673.01, -9102.93, -11276.97, -9718.61, -14955.15, 141087.63, 147275.08, 0.000, 0.000, 0.000, 19:03:35.573
85, 11461.75, -17655.58, -9120.61, -11349.39, -9774.08, -15030.14, 141133.22, 147356.34, 0.000, 0.000, 0.000, 19:03:35.573
86, 11360.59, -17650.55, -9195.89, -11370.15, -9833.90, -15059.17, 141155.59, 147394.08, -0.102, 0.978, 0.028, 19:03:35.573
87, 11220.15, -17664.76, -9228.14, -11307.17, -9822.94, -15009.11, 141126.36, 147338.36, 0.000, 0.000, 0.000, 19:03:35.573
88, 11235.69, -17682.31, -9175.55, -11238.88, -9757.25, -14947.44, 141088.59, 147266.81, 0.000, 0.000, 0.000, 19:03:35.573
89, 11397.96, -17677.23, -9101.61, -11251.44, -9725.80, -14960.13, 141096.48, 147280.25, 0.000, 0.000, 0.000, 19:03:35.573
90, 11482.67, -17657.95, -9115.09, -11322.43, -9779.40, -15036.93, 141140.39, 147359.81, 0.000, 0.000, 0.000, 19:03:35.573
91, 11381.60, -17651.19, -9195.64, -11349.14, -9847.26, -15071.69, 141161.50, 147396.73, 0.000, 0.000, 0.000, 19:03:35.573
92, 11239.78, -17666.95, -9233.86, -11292.30, -9839.13, -15017.09, 141134.30, 147343.44, 0.000, 0.000, 0.000, 19:03:35.574
93, 11249.32, -17685.75, -9180.91, -11228.11, -9764.45, -14950.88, 141097.42, 147272.83, 0.000, 0.000, 0.000, 19:03:35.574
94, 11405.40, -17680.07, -9116.52, -11251.26, -9734.12, -14971.15, 141103.56, 147284.38, 0.000, 0.000, 0.000, 19:03:35.574
95, 11486.54, -17661.57, -9137.10, -11332.54, -9790.67, -15048.85, 141147.94, 147364.33, 0.000, 0.000, 0.000, 19:03:35.574
96, 11382.60, -17657.59, -9214.64, -11363.98, -9852.51, -15077.41, 141172.55, 147404.92, -0.096, 0.980, 0.020, 19:03:35.574
97, 11232.67, -17674.13, -9256.80, -11312.46, -9845.97, -15026.99, 141146.55, 147353.33, 0.000, 0.000, 0.000, 19:03:35.574
98, 11238.21, -17690.15, -9207.22, -11245.77, -9776.00, -14957.65, 141106.84, 147279.66, 0.000, 0.000, 0.000, 19:03:35.575
99, 11392.88, -17684.63, -9129.88, -11262.10, -9740.38, -14966.08, 141112.61, 147290.28, 0.000, 0.000, 0.000, 19:03:35.575
100, 11473.96, -17668.07, -9145.80, -11344.72, -9796.59, -15041.54, 141158.75, 147371.94, 0.000, 0.000, 0.000, 19:03:35.575
101, 11373.95, -17662.44, -9224.86, -11379.99, -9859.51, -15071.22, 141182.27, 147411.98, 0.000, 0.000, 0.000, 19:03:35.575
102, 11234.97, -17675.58, -9256.39, -11320.17, -9842.32, -15007.21, 141153.70, 147357.95, 0.000, 0.000, 0.000, 19:03:35.575
103, 11238.79, -17690.51, -9193.41, -11248.05, -9766.37, -14929.87, 141112.61, 147282.61, 0.000, 0.000, 0.000, 19:03:35.575
104, 11394.90, -17687.76, -9115.24, -11261.34, -9728.53, -14938.88, 141120.44, 147294.92, 0.000, 0.000, 0.000, 19:03:35.576
105, 11481.91, -17670.30, -9126.06, -11336.11, -9778.89, -15011.88, 141166.08, 147376.17, 0.000, 0.000, 0.000, 19:03:35.578
106, 11383.59, -17663.87, -9193.58, -11361.86, -9843.46, -15044.78, 141189.77, 147416.77, -0.098, 0.980, 0.022, 19:03:35.579
107, 11242.68, -17680.16, -9222.17, -11300.46, -9833.87, -14992.95, 141164.58, 147366.39, 0.000, 0.000, 0.000, 19:03:35.579
108, 11244.13, -17695.67, -9165.76, -11232.47, -9762.88, -14934.72, 141123.72, 147291.31, 0.000, 0.000, 0.000, 19:03:35.579
109, 11396.73, -17691.96, -9091.46, -11248.38, -9731.12, -14956.24, 141129.78, 147301.41, 0.000, 0.000, 0.000, 19:03:35.579
110, 11481.44, -17674.75, -9106.91, -11325.34, -9789.77, -15039.50, 141174.95, 147382.19, 0.000, 0.000, 0.000, 19:03:35.580
111, 11382.38, -17669.32, -9184.00, -11356.36, -9860.78, -15078.29, 141199.70, 147424.13, 0.000, 0.000, 0.000, 19:03:35.580
112, 11231.73, -17682.96, -9223.38, -11305.15, -9859.40, -15032.64, 141172.00, 147371.63, 0.000, 0.000, 0.000, 19:03:35.580
113, 11232.91, -17699.90, -9169.87, -11237.09, -9790.67, -14967.17, 141132.13, 147297.13, 0.000, 0.000, 0.000, 19:03:35.580
114, 11392.37, -17696.23, -9091.15, -11250.50, -9748.31, -14975.29, 141137.66, 147306.13, 0.000, 0.000, 0.000, 19:03:35.580
115, 11483.54, -17680.27, -9102.90, -11329.56, -9798.22, -15044.33, 141184.08, 147387.84, -0.102, 0.980, 0.028, 19:03:35.580
116, 11388.06, -17672.94, -9183.88, -11365.30, -9867.20, -15079.09, 141207.30, 147428.38, 0.000, 0.000, 0.000, 19:03:35.580
117, 11238.59, -17688.75, -9224.12, -11312.55, -9859.29, -15030.05, 141182.17, 147378.39, 0.000, 0.000, 0.000, 19:03:35.581
118, 11237.07, -17706.13, -9170.43, -11243.20, -9785.84, -14957.03, 141142.30, 147303.64, 0.000, 0.000, 0.000, 19:03:35.581
119, 11388.62, -17700.81, -9096.58, -11255.94, -9746.19, -14962.77, 141145.03, 147309.41, 0.000, 0.000, 0.000, 19:03:35.581
120, 11471.70, -17683.29, -9107.98, -11332.76, -9789.53, -15029.65, 141189.50, 147389.00, 0.000, 0.000, 0.000, 19:03:35.581
121, 11376.88, -17678.31, -9182.81, -11364.72, -9847.60, -15055.29, 141215.81, 147432.97, 0.000, 0.000, 0.000, 19:03:36.248
122, 11235.51, -17694.31, -9219.89, -11306.90, -9831.15, -14994.76, 141191.50, 147384.20, 0.000, 0.000, 0.000, 19:03:36.249
123, 11236.31, -17709.49, -9172.31, -11238.55, -9755.91, -14919.72, 141149.05, 147306.97, 0.000, 0.000, 0.000, 19:03:36.255
124, 11392.86, -17706.98, -9095.62, -11248.43, -9712.86, -14920.66, 141154.06, 147314.80, 0.000, 0.000, 0.000, 19:03:36.255
125, 11481.71, -17688.77, -9112.60, -11324.31, -9762.26, -14994.20, 141197.64, 147393.59, -0.100, 0.982, 0.030, 19:03:36.255
126, 11381.87, -17683.04, -9197.68, -11361.10, -9830.14, -15033.09, 141223.53, 147437.53, 0.000, 0.000, 0.000, 19:03:36.255
127, 11231.21, -17699.70, -9233.06, -11307.19, -9816.01, -14977.86, 141200.06, 147389.80, 0.000, 0.000, 0.000, 19:03:36.255
128, 11224.69, -17715.30, -9177.72, -11237.27, -9742.39, -14904.12, 141157.77, 147312.41, 0.000, 0.000, 0.000, 19:03:36.255
129, 11376.43, -17712.88, -9102.77, -11249.68, -9703.14, -14917.49, 141161.97, 147318.84, 0.000, 0.000, 0.000, 19:03:36.255
130, 11468.17, -17695.12, -9115.09, -11324.33, -9754.43, -14999.43, 141205.80, 147397.81, 0.000, 0.000, 0.000, 19:03:36.255
131, 11373.44, -17687.83, -9193.81, -11359.09, -9828.33, -15046.66, 141230.45, 147440.91, 0.000, 0.000, 0.000, 19:03:36.255
132, 11219.99, -17703.23, -9230.85, -11301.87, -9828.55, -15008.03, 141206.25, 147392.78, 0.000, 0.000, 0.000, 19:03:36.255
133, 11208.64, -17721.11, -9181.13, -11230.83, -9763.15, -14949.61, 141165.70, 147316.94, 0.000, 0.000, 0.000, 19:03:36.256
134, 11363.47, -17720.44, -9110.75, -11245.03, -9729.74, -14969.57, 141170.78, 147323.77, 0.000, 0.000, 0.000, 19:03:36.256
135, 11460.57, -17703.47, -9120.23, -11319.64, -9780.77, -15046.88, 141215.44, 147403.16, -0.100, 0.986, 0.028, 19:03:36.256
136, 11370.47, -17696.26, -9196.56, -11354.55, -9847.82, -15084.01, 141241.25, 147447.44, 0.000, 0.000, 0.000, 19:03:36.256
137, 11219.48, -17709.44, -9238.13, -11305.15, -9845.54, -15036.20, 141215.59, 147398.16, 0.000, 0.000, 0.000, 19:03:36.256
138, 11214.03, -17728.13, -9187.62, -11233.29, -9776.88, -14961.27, 141175.98, 147323.03, 0.000, 0.000, 0.000, 19:03:36.256
139, 11376.01, -17725.80, -9099.33, -11232.09, -9725.62, -14953.03, 141179.36, 147327.73, 0.000, 0.000, 0.000, 19:03:36.256
140, 11473.11, -17708.17, -9102.68, -11303.30, -9765.61, -15016.24, 141223.48, 147406.89, 0.000, 0.000, 0.000, 19:03:36.256
141, 11379.88, -17699.96, -9184.35, -11342.28, -9832.44, -15054.19, 141248.69, 147451.28, 0.000, 0.000, 0.000, 19:03:36.256
142, 11227.93, -17714.27, -9227.85, -11291.16, -9828.38, -15006.00, 141224.55, 147404.08, 0.000, 0.000, 0.000, 19:03:36.257
143, 11221.98, -17732.02, -9180.13, -11220.75, -9759.62, -14934.47, 141183.69, 147327.94, 0.000, 0.000, 0.000, 19:03:36.257
144, 11379.34, -17726.59, -9105.36, -11229.27, -9718.85, -14938.92, 141183.02, 147328.36, 0.000, 0.000, 0.000, 19:03:36.257
145, 11482.83, -17710.98, -9116.96, -11305.42, -9763.40, -15010.18, 141229.17, 147409.42, -0.104, 0.988, 0.026, 19:03:36.257
146, 11395.79, -17704.26, -9197.92, -11345.88, -9835.39, -15050.41, 141256.77, 147456.58, 0.000, 0.000, 0.000, 19:03:36.257
147, 11242.61, -17720.06, -9241.64, -11301.87, -9835.79, -15001.13, 141234.81, 147411.98, 0.000, 0.000, 0.000, 19:03:36.257
148, 11229.14, -17736.94, -9191.51, -11234.57, -9761.59, -14923.99, 141193.02, 147334.69, 0.000, 0.000, 0.000, 19:03:36.257
149, 11377.28, -17732.76, -9109.74, -11243.06, -9709.46, -14918.27, 141193.11, 147335.45, 0.000, 0.000, 0.000, 19:03:36.257
150, 11469.46, -17715.68, -9115.33, -11318.01, -9749.05, -14986.51, 141237.58, 147414.78, 0.000, 0.000, 0.000, 19:03:36.257
151, 11378.67, -17706.92, -9190.79, -11354.35, -9815.57, -15024.04, 141263.64, 147460.83, 0.000, 0.000, 0.000, 19:03:36.257
152, 11227.93, -17721.04, -9234.71, -11305.65, -9816.82, -14985.64, 141240.58, 147415.25, 0.000, 0.000, 0.000, 19:03:36.258
153, 11214.76, -17738.99, -9194.10, -11241.16, -9756.40, -14932.33, 141199.72, 147338.58, 0.000, 0.000, 0.000, 19:03:36.258
154, 11357.12, -17736.20, -9128.47, -11254.08, -9723.37, -14956.76, 141200.44, 147339.31, 0.000, 0.000, 0.000, 19:03:36.258
155, 11448.72, -17720.02, -9144.52, -11336.29, -9783.40, -15050.37, 141245.36, 147418.72, -0.094, 0.984, 0.020, 19:03:36.258
156, 11358.58, -17713.11, -9226.55, -11378.45, -9862.21, -15104.68, 141273.86, 147467.19, 0.000, 0.000, 0.000, 19:03:36.258
157, 11206.14, -17726.52, -9270.83, -11329.58, -9863.02, -15063.13, 141250.70, 147421.91, 0.000, 0.000, 0.000, 19:03:36.258
158, 11191.88, -17743.19, -9221.99, -11258.26, -9791.67, -14988.97, 141208.44, 147343.91, 0.000, 0.000, 0.000, 19:03:36.258
159, 11347.60, -17740.71, -9137.21, -11257.17, -9740.64, -14978.22, 141209.11, 147344.44, 0.000, 0.000, 0.000, 19:03:36.258
160, 11450.49, -17722.23, -9138.53, -11329.07, -9784.12, -15044.29, 141252.14, 147421.95, 0.000, 0.000, 0.000, 19:03:36.258
161, 11368.92, -17716.13, -9211.47, -11368.12, -9850.12, -15079.00, 141282.27, 147472.56, 0.000, 0.000, 0.000, 19:03:36.259
162, 11220.24, -17731.46, -9251.54, -11318.23, -9849.30, -15029.20, 141261.44, 147430.11, 0.000, 0.000, 0.000, 19:03:36.259
163, 11208.93, -17749.43, -9200.51, -11240.56, -9777.61, -14949.65, 141220.48, 147353.25, 0.000, 0.000, 0.000, 19:03:36.259
164, 11369.46, -17746.68, -9113.54, -11232.24, -9718.56, -14934.34, 141220.38, 147352.69, -0.096, 0.980, 0.020, 19:03:36.259
165, 11476.73, -17727.88, -9110.84, -11301.42, -9753.09, -14996.52, 141262.80, 147429.64, 0.000, 0.000, 0.000, 19:03:36.259
166, 11395.59, -17719.50, -9184.80, -11341.70, -9817.94, -15034.25, 141291.03, 147478.59, 0.000, 0.000, 0.000, 19:03:36.259
167, 11241.05, -17731.66, -9229.37, -11294.22, -9814.07, -14984.36, 141267.73, 147433.69, 0.000, 0.000, 0.000, 19:03:36.259
168, 11218.25, -17749.47, -9189.63, -11227.01, -9750.86, -14913.96, 141226.11, 147355.95, 0.000, 0.000, 0.000, 19:03:36.259
169, 11364.34, -17750.99, -9113.45, -11232.29, -9706.85, -14915.23, 141229.25, 147357.92, 0.000, 0.000, 0.000, 19:03:36.260
170, 11461.33, -17733.54, -9116.40, -11310.81, -9748.85, -14987.36, 141272.50, 147435.55, 0.000, 0.000, 0.000, 19:03:36.260
171, 11374.22, -17725.80, -9194.52, -11356.05, -9819.99, -15033.25, 141301.89, 147485.98, 0.000, 0.000, 0.000, 19:03:36.260
172, 11219.84, -17738.57, -9242.78, -11314.27, -9823.08, -14993.55, 141279.73, 147442.55, 0.000, 0.000, 0.000, 19:03:36.260
173, 11200.64, -17757.70, -9201.18, -11245.97, -9754.68, -14925.24, 141238.97, 147365.47, 0.000, 0.000, 0.000, 19:03:36.260
174, 11346.42, -17755.80, -9128.21, -11254.68, -9706.78, -14930.83, 141237.61, 147362.67, -0.096, 0.978, 0.020, 19:03:36.260
175, 11445.88, -17738.10, -9139.29, -11337.30, -9753.32, -15011.07, 141280.36, 147439.83, 0.000, 0.000, 0.000, 19:03:36.260
176, 11359.94, -17730.56, -9225.55, -11387.72, -9830.68, -15063.44, 141310.41, 147491.36, 0.000, 0.000, 0.000, 19:03:36.260
177, 11203.63, -17740.11, -9277.47, -11346.53, -9836.73, -15027.75, 141285.50, 147445.42, 0.000, 0.000, 0.000, 19:03:36.260
178, 11178.80, -17757.52, -9240.01, -11277.57, -9777.30, -14968.47, 141242.92, 147366.70, 0.000, 0.000, 0.000, 19:03:36.260
179, 11328.51, -17757.32, -9165.02, -11279.90, -9731.88, -14969.34, 141242.81, 147364.94, 0.000, 0.000, 0.000, 19:03:36.260
180, 11438.73, -17740.71, -9166.50, -11348.41, -9771.22, -15034.92, 141286.67, 147442.94, 0.000, 0.000, 0.000, 19:03:36.260
181, 11356.54, -17731.73, -9242.27, -11389.38, -9843.24, -15077.44, 141315.80, 147493.77, 0.000, 0.000, 0.000, 19:03:36.260
182, 11201.38, -17744.40, -9291.91, -11345.37, -9850.17, -15040.51, 141294.45, 147451.95, 0.000, 0.000, 0.000, 19:03:36.260
183, 11184.70, -17763.51, -9245.82, -11268.12, -9784.74, -14966.75, 141253.67, 147374.86, 0.000, 0.000, 0.000, 19:03:36.260
184, 11334.90, -17761.77, -9165.31, -11265.77, -9735.44, -14962.86, 141251.13, 147370.20, -0.090, 0.982, 0.024, 19:03:36.260
185, 11442.42, -17743.62, -9164.77, -11337.23, -9775.85, -15032.24, 141293.22, 147446.20, 0.000, 0.000, 0.000, 19:03:36.260
186, 11363.45, -17734.21, -9238.38, -11378.36, -9842.39, -15074.58, 141322.56, 147497.64, 0.000, 0.000, 0.000, 19:03:36.261
187, 11212.73, -17747.35, -9280.15, -11331.04, -9842.95, -15028.37, 141302.53, 147457.31, 0.000, 0.000, 0.000, 19:03:36.261
188, 11190.60, -17767.11, -9233.71, -11254.91, -9772.36, -14951.68, 141262.30, 147380.45, 0.000, 0.000, 0.000, 19:03:36.261
189, 11335.53, -17766.60, -9157.11, -11257.03, -9719.57, -14947.06, 141260.19, 147375.63, 0.000, 0.000, 0.000, 19:03:36.261
190, 11445.41, -17747.75, -9160.35, -11332.92, -9757.63, -15016.39, 141301.31, 147450.61, 0.000, 0.000, 0.000, 19:03:36.261
191, 11371.56, -17740.18, -9231.25, -11369.91, -9820.80, -15054.84, 141333.16, 147504.59, 0.000, 0.000, 0.000, 19:03:36.261
192, 11218.88, -17752.67, -9273.45, -11320.17, -9818.94, -15005.98, 141312.95, 147464.42, 0.000, 0.000, 0.000, 19:03:36.261
193, 11194.11, -17772.54, -9231.09, -11245.39, -9751.69, -14930.63, 141272.39, 147387.13, 0.000, 0.000, 0.000, 19:03:36.261
194, 11341.52, -17773.08, -9152.37, -11247.46, -9700.14, -14924.68, 141270.70, 147382.38, -0.094, 0.988, 0.026, 19:03:36.261
195, 11452.83, -17753.45, -9155.48, -11321.76, -9740.98, -14995.96, 141310.83, 147456.16, 0.000, 0.000, 0.000, 19:03:36.262
196, 11378.87, -17744.56, -9233.21, -11363.67, -9812.06, -15042.43, 141341.83, 147509.70, 0.000, 0.000, 0.000, 19:03:36.262
197, 11226.92, -17758.91, -9285.96, -11322.88, -9822.43, -15005.93, 141323.95, 147472.11, 0.000, 0.000, 0.000, 19:03:36.262
198, 11195.30, -17775.87, -9253.85, -11258.98, -9762.68, -14941.56, 141280.13, 147391.48, 0.000, 0.000, 0.000, 19:03:36.262
199, 11331.91, -17773.77, -9185.70, -11266.15, -9721.38, -14947.53, 141274.94, 147382.80, 0.000, 0.000, 0.000, 19:03:36.262
200, 11437.34, -17757.25, -9193.29, -11340.94, -9763.96, -15023.88, 141317.73, 147459.08, 0.000, 0.000, 0.000, 19:03:36.262
201, 11358.06, -17748.80, -9275.37, -11390.25, -9839.84, -15078.44, 141349.16, 147513.34, 0.000, 0.000, 0.000, 19:03:36.262
202, 11201.60, -17760.74, -9326.94, -11349.17, -9848.27, -15041.63, 141329.20, 147473.86, 0.000, 0.000, 0.000, 19:03:36.262
203, 11177.57, -17779.38, -9280.35, -11269.66, -9778.96, -14965.65, 141287.11, 147394.69, 0.000, 0.000, 0.000, 19:03:36.262
204, 11332.42, -17778.49, -9189.23, -11257.34, -9717.96, -14951.86, 141282.59, 147386.13, -0.098, 0.976, 0.030, 19:03:36.262
205, 11444.67, -17763.04, -9184.69, -11329.63, -9754.05, -15021.13, 141326.41, 147463.14, 0.000, 0.000, 0.000, 19:03:36.262
206, 11374.56, -17754.41, -9257.38, -11369.64, -9827.41, -15068.03, 141358.50, 147518.41, 0.000, 0.000, 0.000, 19:03:36.262
207, 11222.39, -17763.53, -9306.93, -11326.39, -9839.62, -15029.13, 141336.48, 147477.50, 0.000, 0.000, 0.000, 19:03:36.262
208, 11190.24, -17781.19, -9265.38, -11255.82, -9772.32, -14955.02, 141293.16, 147397.19, 0.000, 0.000, 0.000, 19:03:36.263
209, 11334.14, -17783.58, -9185.09, -11251.58, -9712.93, -14945.76, 141291.09, 147390.77, 0.000, 0.000, 0.000, 19:03:36.263
210, 11448.81, -17765.37, -9175.86, -11319.91, -9739.35, -15004.48, 141332.09, 147464.84, 0.000, 0.000, 0.000, 19:03:36.263
211, 11380.10, -17755.82, -9243.47, -11366.06, -9806.98, -15043.82, 141363.78, 147520.13, 0.000, 0.000, 0.000, 19:03:36.263
212, 11222.72, -17768.07, -9288.40, -11325.45, -9812.57, -14998.49, 141345.14, 147483.02, 0.000, 0.000, 0.000, 19:03:36.263
213, 11191.07, -17787.36, -9244.55, -11253.14, -9743.80, -14921.58, 141303.31, 147404.11, -0.098, 0.982, 0.030, 19:03:36.263
214, 11335.66, -17788.34, -9170.00, -11253.32, -9690.67, -14914.40, 141299.08, 147395.13, 0.000, 0.000, 0.000, 19:03:36.263
215, 11449.01, -17771.11, -9177.74, -11332.36, -9734.23, -14993.10, 141340.27, 147469.45, 0.000, 0.000, 0.000, 19:03:36.263
216, 11378.02, -17758.28, -9260.75, -11380.77, -9813.42, -15051.73, 141369.02, 147522.02, 0.000, 0.000, 0.000, 19:03:36.263
217, 11227.75, -17768.52, -9310.33, -11328.76, -9819.72, -15014.31, 141349.67, 147484.50, 0.000, 0.000, 0.000, 19:03:36.263
218, 11191.45, -17787.21, -9273.25, -11251.35, -9754.08, -14943.48, 141307.23, 147405.02, 0.000, 0.000, 0.000, 19:03:36.263
219, 11329.56, -17788.95, -9197.43, -11247.91, -9704.64, -14941.78, 141302.88, 147395.52, 0.000, 0.000, 0.000, 19:03:36.263
220, 11445.23, -17771.29, -9193.85, -11319.86, -9742.14, -15013.82, 141343.64, 147469.03, 0.000, 0.000, 0.000, 19:03:36.263
221, 11376.99, -17761.86, -9270.07, -11365.91, -9814.54, -15069.01, 141376.52, 147525.94, 0.000, 0.000, 0.000, 19:03:36.263
222, 11219.44, -17773.66, -9325.53, -11328.80, -9831.79, -15042.52, 141358.86, 147490.39, 0.000, 0.000, 0.000, 19:03:36.264
223, 11179.98, -17790.92, -9292.22, -11260.45, -9772.88, -14975.87, 141314.73, 147409.06, -0.096, 0.982, 0.028, 19:03:36.264
224, 11317.05, -17792.26, -9217.43, -11256.83, -9721.51, -14968.90, 141309.42, 147398.08, 0.000, 0.000, 0.000, 19:03:36.264
225, 11436.29, -17776.88, -9213.77, -11330.81, -9761.07, -15036.22, 141352.34, 147473.59, 0.000, 0.000, 0.000, 19:03:36.264
226, 11372.30, -17765.88, -9283.53, -11379.14, -9834.05, -15080.36, 141384.14, 147529.69, 0.000, 0.000, 0.000, 19:03:36.264
227, 11211.77, -17778.40, -9327.65, -11338.57, -9840.13, -15036.53, 141367.78, 147495.78, 0.000, 0.000, 0.000, 19:03:36.264
228, 11159.73, -17796.84, -9283.17, -11264.09, -9773.28, -14957.61, 141324.17, 147414.95, 0.000, 0.000, 0.000, 19:03:36.264
229, 11298.99, -17797.35, -9196.80, -11249.61, -9715.99, -14940.49, 141316.94, 147401.72, 0.000, 0.000, 0.000, 19:03:36.264
230, 11425.97, -17780.07, -9185.34, -11318.23, -9747.57, -15002.49, 141357.33, 147474.64, 0.000, 0.000, 0.000, 19:03:36.264
231, 11373.75, -17770.22, -9246.78, -11361.64, -9812.30, -15042.12, 141391.00, 147532.97, 0.000, 0.000, 0.000, 19:03:36.264
232, 11222.56, -17781.06, -9283.93, -11321.02, -9819.50, -14997.15, 141374.11, 147498.73, 0.000, 0.000, 0.000, 19:03:36.264
233, 11186.11, -17797.55, -9236.61, -11243.87, -9751.44, -14913.13, 141329.53, 147416.70, -0.096, 0.982, 0.026, 19:03:36.264
234, 11327.10, -17799.05, -9150.16, -11236.53, -9692.10, -14891.76, 141323.30, 147403.95, 0.000, 0.000, 0.000, 19:03:36.264
235, 11446.55, -17783.90, -9143.92, -11309.40, -9730.41, -14959.62, 141365.80, 147478.64, 0.000, 0.000, 0.000, 19:03:36.265
236, 11386.92, -17773.30, -9215.65, -11356.99, -9805.00, -15014.83, 141399.02, 147536.55, 0.000, 0.000, 0.000, 19:03:36.265
237, 11231.80, -17784.30, -9271.03, -11320.82, -9825.83, -14995.27, 141382.33, 147503.14, 0.000, 0.000, 0.000, 19:03:36.265
238, 11193.33, -17802.63, -9237.42, -11245.90, -9770.01, -14932.42, 141339.11, 147422.67, 0.000, 0.000, 0.000, 19:03:36.265
239, 11327.48, -17805.38, -9167.81, -11245.70, -9722.58, -14936.17, 141332.95, 147409.73, 0.000, 0.000, 0.000, 19:03:36.265
240, 11445.46, -17790.11, -9174.41, -11322.83, -9762.46, -15013.91, 141374.91, 147483.88, 0.000, 0.000, 0.000, 19:03:36.265
241, 11386.83, -17779.18, -9251.10, -11374.60, -9838.03, -15067.87, 141408.48, 147542.58, 0.000, 0.000, 0.000, 19:03:36.521
242, 11232.29, -17788.70, -9305.97, -11338.03, -9852.18, -15035.33, 141391.25, 147508.91, 0.000, 0.000, 0.000, 19:03:36.522
243, 11186.47, -17806.03, -9275.97, -11267.54, -9792.75, -14964.87, 141346.66, 147426.98, -0.094, 0.980, 0.022, 19:03:36.522
244, 11323.93, -17808.19, -9201.16, -11260.41, -9737.02, -14951.39, 141339.19, 147412.31, 0.000, 0.000, 0.000, 19:03:36.522
245, 11446.19, -17791.74, -9200.94, -11334.68, -9769.97, -15019.70, 141379.66, 147484.92, 0.000, 0.000, 0.000, 19:03:36.523
246, 11384.28, -17781.26, -9283.15, -11392.73, -9846.52, -15075.89, 141414.00, 147544.95, 0.000, 0.000, 0.000, 19:03:36.523
247, 11230.88, -17791.47, -9337.28, -11355.98, -9857.25, -15037.85, 141398.06, 147513.06, 0.000, 0.000, 0.000, 19:03:36.523
248, 11184.79, -17811.17, -9303.11, -11284.26, -9792.54, -14960.02, 141356.06, 147433.75, 0.000, 0.000, 0.000, 19:03:36.523
249, 11314.72, -17812.89, -9220.45, -11277.53, -9729.98, -14937.09, 141348.00, 147418.09, 0.000, 0.000, 0.000, 19:03:36.524
250, 11434.95, -17795.81, -9210.42, -11349.17, -9753.88, -14996.63, 141387.77, 147489.70, 0.000, 0.000, 0.000, 19:03:36.524
251, 11379.74, -17784.08, -9278.81, -11397.02, -9823.19, -15045.34, 141421.19, 147548.86, 0.000, 0.000, 0.000, 19:03:36.524
252, 11223.77, -17794.78, -9331.16, -11358.82, -9841.85, -15016.04, 141406.27, 147518.16, 0.000, 0.000, 0.000, 19:03:36.524
253, 11171.18, -17815.10, -9300.99, -11287.45, -9788.70, -14949.45, 141364.81, 147439.14, -0.092, 0.980, 0.030, 19:03:36.524
254, 11307.55, -17817.71, -9214.08, -11268.41, -9728.10, -14928.91, 141356.97, 147423.34, 0.000, 0.000, 0.000, 19:03:36.525
255, 11441.10, -17801.31, -9195.71, -11329.07, -9752.76, -14988.30, 141397.22, 147495.33, 0.000, 0.000, 0.000, 19:03:36.525
0, 11395.08, -17790.11, -9256.17, -11369.24, -9824.17, -15037.07, 141431.98, 147556.16, 0.000, 0.000, 0.000, 19:03:36.525
1, 11244.40, -17801.53, -9304.05, -11329.58, -9843.69, -15006.04, 141418.61, 147527.31, 0.000, 0.000, 0.000, 19:03:36.525
2, 11203.90, -17820.38, -9265.85, -11250.79, -9781.17, -14929.56, 141375.97, 147447.25, 0.000, 0.000, 0.000, 19:03:36.525
3, 11338.17, -17823.71, -9188.85, -11238.70, -9727.12, -14918.72, 141367.64, 147430.61, 0.000, 0.000, 0.000, 19:03:36.526
4, 11460.54, -17806.65, -9182.97, -11310.00, -9766.46, -14993.80, 141406.78, 147501.17, 0.000, 0.000, 0.000, 19:03:36.526
5, 11410.63, -17793.35, -9248.97, -11360.72, -9839.51, -15047.31, 141439.98, 147560.69, 0.000, 0.000, 0.000, 19:03:36.526
6, 11255.67, -17803.63, -9303.40, -11328.58, -9857.97, -15019.25, 141425.97, 147531.75, -0.094, 0.980, 0.030, 19:03:36.526
7, 11198.60, -17823.17, -9281.25, -11261.05, -9808.44, -14956.69, 141383.42, 147451.86, 0.000, 0.000, 0.000, 19:03:36.527
8, 11334.37, -17824.49, -9192.83, -11243.69, -9743.24, -14932.89, 141372.88, 147432.48, 0.000, 0.000, 0.000, 19:03:36.527
9, 11464.66, -17807.41, -9174.41, -11310.41, -9772.18, -14995.72, 141411.91, 147502.84, 0.000, 0.000, 0.000, 19:03:36.527
10, 11409.27, -17796.66, -9248.57, -11370.04, -9851.06, -15056.96, 141447.89, 147565.34, 0.000, 0.000, 0.000, 19:03:36.527
11, 11249.16, -17807.16, -9310.42, -11341.25, -9872.07, -15031.64, 141434.17, 147537.05, 0.000, 0.000, 0.000, 19:03:36.528
12, 11192.30, -17826.83, -9279.57, -11267.54, -9810.92, -14957.43, 141392.02, 147457.34, 0.000, 0.000, 0.000, 19:03:36.528
13, 11323.06, -17831.13, -9197.00, -11252.96, -9747.86, -14936.71, 141383.67, 147439.72, 0.000, 0.000, 0.000, 19:03:36.528
14, 11452.77, -17815.10, -9185.47, -11323.37, -9774.51, -15001.89, 141423.33, 147510.52, 0.000, 0.000, 0.000, 19:03:36.528
15, 11398.90, -17800.93, -9251.81, -11379.07, -9840.51, -15049.61, 141456.39, 147570.33, 0.000, 0.000, 0.000, 19:03:36.529
16, 11236.40, -17810.52, -9305.12, -11352.05, -9852.85, -15013.64, 141442.77, 147542.25, -0.094, 0.980, 0.030, 19:03:36.529
17, 11175.29, -17829.81, -9275.82, -11281.42, -9787.25, -14934.32, 141399.98, 147461.97, 0.000, 0.000, 0.000, 19:03:36.529
18, 11298.34, -17833.72, -9195.22, -11269.06, -9724.15, -14911.38, 141390.30, 147442.63, 0.000, 0.000, 0.000, 19:03:36.530
19, 11427.46, -17817.02, -9180.46, -11337.72, -9754.03, -14973.83, 141428.72, 147511.83, 0.000, 0.000, 0.000, 19:03:36.530
20, 11377.62, -17805.67, -9247.14, -11390.09, -9826.97, -15026.61, 141464.88, 147575.00, 0.000, 0.000, 0.000, 19:03:36.530
21, 11225.85, -17816.02, -9297.48, -11350.62, -9841.05, -14992.34, 141452.55, 147548.69, 0.000, 0.000, 0.000, 19:03:36.530
22, 11174.69, -17833.99, -9265.54, -11267.56, -9781.03, -14917.67, 141408.28, 147466.67, 0.000, 0.000, 0.000, 19:03:36.530
23, 11305.04, -17835.82, -9185.83, -11249.10, -9728.28, -14905.22, 141395.66, 147443.92, 0.000, 0.000, 0.000, 19:03:36.531
24, 11445.84, -17818.97, -9172.75, -11310.92, -9758.79, -14970.84, 141433.61, 147512.44, 0.000, 0.000, 0.000, 19:03:36.531
25, 11407.57, -17806.45, -9244.37, -11358.42, -9834.39, -15030.09, 141469.42, 147575.48, 0.000, 0.000, 0.000, 19:03:36.531
26, 11253.79, -17814.59, -9309.66, -11328.11, -9859.71, -15011.72, 141455.48, 147547.95, -0.096, 0.976, 0.026, 19:03:36.531
27, 11190.65, -17834.14, -9288.76, -11258.60, -9810.47, -14948.53, 141412.70, 147467.55, 0.000, 0.000, 0.000, 19:03:36.531
28, 11313.69, -17837.81, -9211.40, -11241.27, -9750.99, -14932.08, 141401.36, 147445.63, 0.000, 0.000, 0.000, 19:03:36.532
29, 11447.29, -17822.65, -9196.02, -11304.75, -9773.34, -14994.89, 141440.84, 147515.42, 0.000, 0.000, 0.000, 19:03:36.532
30, 11403.66, -17811.23, -9271.01, -11362.13, -9844.54, -15054.73, 141477.80, 147579.98, 0.000, 0.000, 0.000, 19:03:36.532
31, 11249.92, -17821.67, -9336.55, -11331.08, -9864.88, -15031.64, 141466.69, 147555.73, 0.000, 0.000, 0.000, 19:03:36.532
32, 11191.09, -17839.96, -9311.71, -11251.49, -9802.33, -14957.70, 141422.86, 147474.22, 0.000, 0.000, 0.000, 19:03:36.532
33, 11315.79, -17844.60, -9230.51, -11230.95, -9736.33, -14938.72, 141412.02, 147452.47, 0.000, 0.000, 0.000, 19:03:36.533
34, 11448.23, -17830.34, -9214.08, -11296.73, -9761.70, -15006.87, 141451.95, 147522.64, 0.000, 0.000, 0.000, 19:03:36.533
35, 11403.32, -17817.58, -9281.14, -11354.78, -9832.71, -15061.81, 141488.17, 147586.70, 0.000, 0.000, 0.000, 19:03:36.533
36, 11253.61, -17824.20, -9336.90, -11324.96, -9848.27, -15029.74, 141474.11, 147559.91, -0.100, 0.976, 0.026, 19:03:36.533
37, 11185.77, -17845.95, -9315.40, -11258.01, -9791.56, -14955.26, 141433.52, 147481.83, 0.000, 0.000, 0.000, 19:03:36.533
38, 11304.62, -17849.14, -9232.88, -11242.28, -9721.49, -14923.52, 141420.64, 147457.66, 0.000, 0.000, 0.000, 19:03:36.533
39, 11435.51, -17833.79, -9207.33, -11307.68, -9730.16, -14971.47, 141459.33, 147526.17, 0.000, 0.000, 0.000, 19:03:36.533
40, 11389.06, -17820.02, -9269.85, -11364.36, -9795.00, -15017.22, 141494.94, 147589.81, 0.000, 0.000, 0.000, 19:03:36.533
41, 11233.07, -17827.64, -9325.82, -11332.76, -9809.76, -14984.94, 141482.63, 147565.14, 0.000, 0.000, 0.000, 19:03:36.534
42, 11169.84, -17847.06, -9296.45, -11251.02, -9749.32, -14908.97, 141440.16, 147484.98, 0.000, 0.000, 0.000, 19:03:36.534
43, 11296.21, -17851.69, -9211.51, -11226.48, -9687.29, -14889.48, 141427.94, 147460.98, 0.000, 0.000, 0.000, 19:03:36.534
44, 11432.09, -17835.28, -9189.54, -11292.75, -9716.88, -14961.18, 141464.92, 147527.77, 0.000, 0.000, 0.000, 19:03:36.534
45, 11392.62, -17822.03, -9255.61, -11346.28, -9793.80, -15027.05, 141501.38, 147592.52, 0.000, 0.000, 0.000, 19:03:36.534
46, 11244.36, -17829.92, -9320.57, -11314.25, -9820.31, -15008.10, 141489.88, 147568.80, -0.104, 0.980, 0.022, 19:03:36.534
47, 11188.21, -17848.56, -9298.75, -11236.24, -9768.14, -14937.22, 141446.53, 147487.67, 0.000, 0.000, 0.000, 19:03:36.842
48, 11319.24, -17852.03, -9216.21, -11212.24, -9710.76, -14915.25, 141432.42, 147461.38, 0.000, 0.000, 0.000, 19:03:36.842
49, 11452.94, -17837.56, -9196.60, -11280.37, -9736.67, -14980.25, 141470.95, 147529.47, 0.000, 0.000, 0.000, 19:03:36.842
50, 11409.34, -17824.04, -9271.55, -11348.14, -9817.27, -15045.81, 141507.28, 147594.22, 0.000, 0.000, 0.000, 19:03:36.842
51, 11249.68, -17832.09, -9346.09, -11329.90, -9851.26, -15028.04, 141496.31, 147571.44, 0.000, 0.000, 0.000, 19:03:36.842
52, 11180.66, -17851.91, -9331.94, -11261.08, -9798.13, -14957.54, 141453.72, 147491.52, 0.000, 0.000, 0.000, 19:03:36.842
53, 11296.15, -17856.16, -9254.96, -11248.76, -9737.56, -14937.92, 141439.39, 147464.91, 0.000, 0.000, 0.000, 19:03:36.842
54, 11432.22, -17840.49, -9235.67, -11318.97, -9760.11, -14999.50, 141476.41, 147531.25, 0.000, 0.000, 0.000, 19:03:36.842
55, 11399.34, -17826.77, -9305.25, -11372.08, -9829.54, -15051.60, 141513.34, 147596.97, -0.104, 0.980, 0.026, 19:03:36.842
56, 11244.29, -17833.83, -9374.97, -11341.19, -9853.36, -15024.42, 141502.20, 147574.48, 0.000, 0.000, 0.000, 19:03:36.842
57, 11175.69, -17853.39, -9360.62, -11265.14, -9793.37, -14944.87, 141459.58, 147494.17, 0.000, 0.000, 0.000, 19:03:36.842
58, 11292.86, -17858.62, -9277.16, -11244.96, -9724.89, -14916.10, 141445.59, 147467.28, 0.000, 0.000, 0.000, 19:03:36.843
59, 11427.60, -17844.04, -9245.55, -11312.06, -9739.24, -14970.28, 141483.39, 147534.22, 0.000, 0.000, 0.000, 19:03:36.843
60, 11389.24, -17831.01, -9305.59, -11369.04, -9804.12, -15020.93, 141521.42, 147601.34, 0.000, 0.000, 0.000, 19:03:36.843
61, 11228.38, -17840.74, -9372.73, -11344.49, -9823.64, -14998.69, 141513.50, 147582.31, 0.000, 0.000, 0.000, 19:03:36.843
62, 11155.00, -17860.00, -9351.10, -11268.90, -9764.05, -14927.32, 141470.63, 147501.84, 0.000, 0.000, 0.000, 19:03:36.843
63, 11266.87, -17865.10, -9268.80, -11245.94, -9699.18, -14909.37, 141456.00, 147473.88, 0.000, 0.000, 0.000, 19:03:36.843
64, 11397.09, -17847.98, -9248.86, -11311.97, -9726.83, -14984.14, 141490.69, 147537.41, 0.000, 0.000, 0.000, 19:03:36.843
65, 11355.98, -17836.27, -9317.46, -11369.08, -9807.92, -15051.80, 141530.23, 147606.13, -0.102, 0.978, 0.030, 19:03:36.843
66, 11206.52, -17843.82, -9377.32, -11338.30, -9835.50, -15030.03, 141521.09, 147586.38, 0.000, 0.000, 0.000, 19:03:36.843
67, 11143.98, -17861.64, -9352.75, -11258.22, -9781.19, -14956.58, 141477.11, 147504.72, 0.000, 0.000, 0.000, 19:03:36.843
68, 11265.19, -17866.33, -9267.86, -11231.53, -9716.17, -14930.58, 141461.59, 147475.69, 0.000, 0.000, 0.000, 19:03:36.844
69, 11409.51, -17852.09, -9240.14, -11294.54, -9734.85, -14989.95, 141498.97, 147541.84, 0.000, 0.000, 0.000, 19:03:36.844
70, 11385.04, -17839.15, -9300.27, -11347.15, -9805.06, -15043.01, 141538.03, 147610.45, 0.000, 0.000, 0.000, 19:03:36.844
71, 11234.90, -17849.57, -9360.17, -11315.64, -9830.54, -15018.40, 141532.31, 147594.67, 0.000, 0.000, 0.000, 19:03:36.844
72, 11169.37, -17867.65, -9339.90, -11233.45, -9781.06, -14943.86, 141488.61, 147513.47, 0.000, 0.000, 0.000, 19:03:36.844
73, 11288.48, -17871.07, -9258.29, -11207.79, -9721.80, -14916.53, 141471.14, 147482.08, 0.000, 0.000, 0.000, 19:03:36.845
74, 11432.36, -17855.89, -9230.42, -11268.27, -9738.25, -14971.24, 141507.38, 147546.72, 0.000, 0.000, 0.000, 19:03:36.845
75, 11401.49, -17841.23, -9296.45, -11329.45, -9814.83, -15031.30, 141544.94, 147614.00, -0.104, 0.984, 0.030, 19:03:36.846
76, 11248.63, -17849.70, -9365.13, -11306.72, -9845.41, -15008.28, 141537.67, 147597.11, 0.000, 0.000, 0.000, 19:03:36.846
77, 11178.04, -17868.19, -9350.45, -11234.14, -9793.10, -14932.22, 141494.11, 147516.20, 0.000, 0.000, 0.000, 19:03:36.846
78, 11294.58, -17873.42, -9269.27, -11211.99, -9725.24, -14901.39, 141477.89, 147485.41, 0.000, 0.000, 0.000, 19:03:36.846
79, 11433.65, -17859.47, -9242.60, -11280.50, -9741.05, -14959.71, 141514.72, 147550.30, 0.000, 0.000, 0.000, 19:03:36.846
80, 11395.61, -17847.15, -9313.35, -11351.24, -9818.50, -15022.36, 141554.73, 147620.28, 0.000, 0.000, 0.000, 19:03:36.846
81, 11231.17, -17854.15, -9386.41, -11337.63, -9849.00, -15004.68, 141546.58, 147602.56, 0.000, 0.000, 0.000, 19:03:36.846
82, 11153.83, -17873.71, -9371.73, -11269.75, -9798.47, -14933.85, 141504.11, 147522.53, 0.000, 0.000, 0.000, 19:03:36.846
83, 11260.27, -17880.21, -9293.43, -11252.14, -9735.50, -14913.33, 141488.17, 147491.73, 0.000, 0.000, 0.000, 19:03:36.846
84, 11396.15, -17864.05, -9266.74, -11318.88, -9755.24, -14981.68, 141522.33, 147553.81, 0.000, 0.000, 0.000, 19:03:36.847
85, 11359.00, -17850.50, -9330.62, -11380.68, -9829.42, -15049.85, 141561.50, 147622.97, -0.102, 0.984, 0.024, 19:03:36.847
86, 11208.19, -17860.27, -9386.75, -11350.01, -9852.89, -15028.73, 141557.02, 147609.38, 0.000, 0.000, 0.000, 19:03:36.847
87, 11133.09, -17879.65, -9361.02, -11270.02, -9794.09, -14954.72, 141514.50, 147529.63, 0.000, 0.000, 0.000, 19:03:36.847
88, 11246.08, -17883.27, -9274.95, -11241.03, -9725.74, -14925.58, 141495.23, 147495.16, 0.000, 0.000, 0.000, 19:03:36.848
89, 11394.05, -17867.13, -9239.92, -11297.85, -9735.44, -14977.66, 141529.14, 147556.58, 0.000, 0.000, 0.000, 19:03:36.848
90, 11372.63, -17854.66, -9295.35, -11354.46, -9805.71, -15034.16, 141570.11, 147627.88, 0.000, 0.000, 0.000, 19:03:36.848
91, 11221.00, -17860.34, -9358.29, -11332.98, -9836.58, -15012.75, 141562.06, 147611.11, 0.000, 0.000, 0.000, 19:03:36.848
92, 11143.08, -17879.05, -9344.44, -11260.50, -9788.45, -14941.96, 141519.08, 147530.67, 0.000, 0.000, 0.000, 19:03:36.848
93, 11258.37, -17885.91, -9259.90, -11231.42, -9721.82, -14909.82, 141502.39, 147498.36, 0.000, 0.000, 0.000, 19:03:36.848
94, 11401.87, -17871.69, -9227.69, -11289.91, -9734.03, -14961.94, 141537.59, 147560.94, -0.100, 0.978, 0.026, 19:03:36.848
95, 11364.10, -17857.66, -9291.22, -11352.00, -9808.26, -15023.88, 141576.39, 147630.34, 0.000, 0.000, 0.000, 19:03:36.848
96, 11209.98, -17866.31, -9356.93, -11330.70, -9837.76, -15007.21, 141571.31, 147616.81, 0.000, 0.000, 0.000, 19:03:36.848
97, 11139.51, -17886.18, -9339.39, -11253.86, -9780.50, -14931.10, 141529.52, 147537.53, 0.000, 0.000, 0.000, 19:03:36.848
98, 11257.10, -17892.26, -9255.48, -11222.25, -9710.07, -14897.84, 141511.44, 147503.53, 0.000, 0.000, 0.000, 19:03:36.848
99, 11408.29, -17877.42, -9224.99, -11280.34, -9722.61, -14955.57, 141545.81, 147565.05, 0.000, 0.000, 0.000, 19:03:36.849
100, 11380.37, -17864.05, -9290.70, -11345.63, -9798.96, -15024.06, 141585.98, 147636.00, 0.000, 0.000, 0.000, 19:03:36.849
101, 11228.49, -17870.46, -9363.86, -11322.32, -9834.10, -15013.53, 141579.66, 147621.55, 0.000, 0.000, 0.000, 19:03:36.849
102, 11154.26, -17889.80, -9352.91, -11246.70, -9786.55, -14941.27, 141537.34, 147541.94, 0.000, 0.000, 0.000, 19:03:36.849
103, 11268.27, -17896.84, -9271.55, -11217.94, -9719.50, -14905.46, 141519.39, 147507.84, 0.000, 0.000, 0.000, 19:03:36.849
104, 11413.92, -17883.43, -9245.04, -11280.10, -9736.55, -14959.17, 141554.44, 147569.81, -0.106, 0.984, 0.024, 19:03:36.849
105, 11391.81, -17868.97, -9311.54, -11348.38, -9808.21, -15017.42, 141594.14, 147640.38, 0.000, 0.000, 0.000, 19:03:37.001
106, 11233.61, -17875.96, -9385.18, -11338.10, -9836.71, -14997.24, 141589.28, 147627.98, 0.000, 0.000, 0.000, 19:03:37.001
107, 11142.81, -17894.22, -9376.02, -11273.06, -9784.39, -14922.78, 141545.97, 147547.56, 0.000, 0.000, 0.000, 19:03:37.001
108, 11241.72, -17899.05, -9298.46, -11250.68, -9717.35, -14887.96, 141525.31, 147510.31, 0.000, 0.000, 0.000, 19:03:37.002
109, 11385.98, -17883.88, -9270.63, -11314.54, -9730.07, -14943.95, 141558.28, 147569.98, 0.000, 0.000, 0.000, 19:03:37.002
110, 11365.35, -17870.62, -9334.92, -11380.48, -9804.86, -15012.08, 141599.61, 147642.47, 0.000, 0.000, 0.000, 19:03:37.002
111, 11211.14, -17877.24, -9405.46, -11358.80, -9842.70, -15004.08, 141595.08, 147630.72, 0.000, 0.000, 0.000, 19:03:37.002
112, 11128.71, -17895.77, -9396.70, -11280.17, -9800.05, -14939.48, 141552.14, 147550.61, 0.000, 0.000, 0.000, 19:03:37.002
113, 11236.94, -17902.27, -9319.49, -11250.39, -9738.52, -14912.37, 141532.45, 147513.86, 0.000, 0.000, 0.000, 19:03:37.003
114, 11387.90, -17887.79, -9289.70, -11310.09, -9756.42, -14972.94, 141565.75, 147573.63, -0.104, 0.988, 0.026, 19:03:37.003
115, 11368.37, -17874.47, -9350.63, -11375.74, -9835.46, -15043.06, 141607.48, 147646.66, 0.000, 0.000, 0.000, 19:03:37.003
116, 11216.84, -17880.30, -9416.39, -11355.00, -9869.08, -15028.46, 141602.92, 147635.23, 0.000, 0.000, 0.000, 19:03:37.003
117, 11137.00, -17899.07, -9403.85, -11278.35, -9820.15, -14954.41, 141560.45, 147555.59, 0.000, 0.000, 0.000, 19:03:37.004
118, 11243.46, -17906.45, -9325.08, -11247.53, -9750.52, -14921.55, 141541.28, 147519.00, 0.000, 0.000, 0.000, 19:03:37.004
119, 11395.83, -17892.88, -9291.87, -11305.94, -9757.23, -14971.67, 141575.25, 147578.97, 0.000, 0.000, 0.000, 19:03:37.004
120, 11386.94, -17876.79, -9347.99, -11364.92, -9824.78, -15028.64, 141614.64, 147649.72, 0.000, 0.000, 0.000, 19:03:37.004
121, 11231.08, -17881.75, -9415.00, -11346.50, -9856.98, -15014.40, 141609.63, 147638.11, 0.000, 0.000, 0.000, 19:03:37.005
122, 11141.29, -17900.33, -9399.49, -11268.32, -9802.83, -14937.78, 141566.80, 147558.36, 0.000, 0.000, 0.000, 19:03:37.005
123, 11257.97, -17906.81, -9315.51, -11233.63, -9728.35, -14898.33, 141546.11, 147520.06, 0.000, 0.000, 0.000, 19:03:37.005
124, 11415.73, -17893.49, -9281.43, -11285.95, -9734.88, -14950.68, 141579.94, 147579.63, -0.098, 0.986, 0.024, 19:03:37.005
125, 11405.74, -17881.64, -9339.39, -11342.26, -9800.64, -15006.80, 141624.09, 147655.31, 0.000, 0.000, 0.000, 19:03:37.005
126, 11253.32, -17884.72, -9407.67, -11324.35, -9831.35, -14989.73, 141618.09, 147643.34, 0.000, 0.000, 0.000, 19:03:37.006
127, 11166.39, -17904.39, -9400.90, -11253.59, -9783.51, -14919.88, 141576.86, 147565.27, 0.000, 0.000, 0.000, 19:03:37.006
128, 11263.80, -17911.03, -9323.61, -11226.59, -9710.69, -14881.68, 141555.69, 147526.02, 0.000, 0.000, 0.000, 19:03:37.006
129, 11411.21, -17896.55, -9289.65, -11290.36, -9714.85, -14929.76, 141587.80, 147583.63, 0.000, 0.000, 0.000, 19:03:37.007
130, 11395.10, -17882.80, -9355.90, -11363.00, -9788.88, -14996.86, 141629.91, 147657.63, 0.000, 0.000, 0.000, 19:03:37.007
131, 11238.10, -17885.96, -9432.12, -11353.39, -9821.56, -14983.18, 141624.61, 147646.77, 0.000, 0.000, 0.000, 19:03:37.007
132, 11144.76, -17905.54, -9429.02, -11285.48, -9776.81, -14913.40, 141583.23, 147568.63, 0.000, 0.000, 0.000, 19:03:37.007
133, 11244.27, -17912.24, -9352.95, -11256.23, -9709.87, -14880.85, 141561.38, 147528.44, 0.000, 0.000, 0.000, 19:03:37.007
134, 11397.96, -17899.32, -9320.12, -11315.62, -9720.50, -14938.07, 141594.39, 147586.75, -0.098, 0.992, 0.024, 19:03:37.008
135, 11381.15, -17884.81, -9387.35, -11384.79, -9803.07, -15011.25, 141635.91, 147660.52, 0.000, 0.000, 0.000, 19:03:37.008
136, 11227.37, -17889.78, -9456.69, -11364.50, -9841.25, -15003.85, 141632.97, 147652.33, 0.000, 0.000, 0.000, 19:03:37.008
137, 11140.76, -17909.09, -9441.53, -11282.89, -9792.05, -14931.97, 141591.72, 147574.30, 0.000, 0.000, 0.000, 19:03:37.008
138, 11239.31, -17916.02, -9359.59, -11245.32, -9718.14, -14895.29, 141569.48, 147533.27, 0.000, 0.000, 0.000, 19:03:37.008
139, 11392.06, -17903.28, -9320.99, -11297.44, -9724.60, -14949.41, 141602.44, 147591.20, 0.000, 0.000, 0.000, 19:03:37.009
140, 11380.01, -17889.02, -9378.21, -11361.08, -9800.93, -15021.13, 141644.61, 147665.59, 0.000, 0.000, 0.000, 19:03:37.009
141, 11235.42, -17894.27, -9437.44, -11340.34, -9832.17, -15006.96, 141642.63, 147658.75, 0.000, 0.000, 0.000, 19:03:37.009
142, 11148.25, -17911.90, -9426.18, -11265.32, -9785.28, -14936.11, 141599.70, 147579.16, 0.000, 0.000, 0.000, 19:03:37.009
143, 11246.62, -17920.46, -9351.01, -11231.21, -9716.21, -14902.04, 141578.53, 147538.81, -0.100, 0.984, 0.026, 19:03:37.010
144, 11397.62, -17907.48, -9320.16, -11291.09, -9727.46, -14961.18, 141610.34, 147595.38, 0.000, 0.000, 0.000, 19:03:37.010
145, 11384.35, -17893.87, -9382.97, -11359.33, -9799.38, -15030.63, 141653.34, 147670.80, 0.000, 0.000, 0.000, 19:03:37.010
146, 11241.68, -17898.38, -9451.57, -11339.20, -9830.90, -15016.44, 141651.31, 147664.30, 0.000, 0.000, 0.000, 19:03:37.011
147, 11153.86, -17916.89, -9446.79, -11264.54, -9785.06, -14946.19, 141609.45, 147586.03, 0.000, 0.000, 0.000, 19:03:37.011
148, 11248.83, -17926.43, -9369.78, -11230.23, -9717.22, -14909.55, 141588.69, 147545.83, 0.000, 0.000, 0.000, 19:03:37.011
149, 11402.88, -17911.75, -9327.74, -11284.34, -9719.21, -14957.05, 141618.77, 147600.36, 0.000, 0.000, 0.000, 19:03:37.011
150, 11391.99, -17896.79, -9383.20, -11357.01, -9789.55, -15023.05, 141660.75, 147674.89, 0.000, 0.000, 0.000, 19:03:37.011
151, 11241.32, -17901.56, -9449.83, -11348.03, -9823.57, -15008.77, 141659.52, 147669.39, 0.000, 0.000, 0.000, 19:03:37.012
152, 11150.59, -17919.50, -9436.39, -11273.88, -9769.70, -14924.50, 141617.42, 147590.64, 0.000, 0.000, 0.000, 19:03:37.012
153, 11249.54, -17927.02, -9355.72, -11242.26, -9724.46, -14875.47, 141594.56, 147547.80, -0.104, 0.984, 0.024, 19:03:37.012
154, 11402.43, -17912.82, -9320.81, -11302.23, -9709.71, -14918.25, 141625.14, 147602.36, 0.000, 0.000, 0.000, 19:03:37.013
155, 11395.52, -17896.93, -9383.91, -11375.67, -9764.11, -14979.40, 141666.64, 147676.58, 0.000, 0.000, 0.000, 19:03:37.013
156, 11238.75, -17902.07, -9462.63, -11371.36, -9807.30, -14975.09, 141666.42, 147672.45, 0.000, 0.000, 0.000, 19:03:37.013
157, 11147.40, -17920.60, -9455.77, -11297.89, -9764.05, -14900.39, 141624.97, 147594.39, 0.000, 0.000, 0.000, 19:03:37.013
158, 11243.37, -17930.14, -9379.28, -11265.30, -9724.73, -14862.14, 141603.28, 147552.58, 0.000, 0.000, 0.000, 19:03:37.013
159, 11398.12, -17917.36, -9344.24, -11315.21, -9716.79, -14916.41, 141634.63, 147607.70, 0.000, 0.000, 0.000, 19:03:37.014
160, 11395.90, -17901.82, -9399.91, -11378.07, -9777.23, -14986.33, 141676.84, 147682.55, 0.000, 0.000, 0.000, 19:03:37.014
161, 11249.28, -17905.09, -9469.12, -11362.60, -9817.98, -14981.61, 141675.34, 147677.61, 0.000, 0.000, 0.000, 19:03:37.014
162, 11157.61, -17925.36, -9463.64, -11287.09, -9776.27, -14915.12, 141635.72, 147601.81, 0.000, 0.000, 0.000, 19:03:37.014
163, 11254.50, -17933.41, -9392.65, -11252.18, -9716.30, -14888.47, 141611.69, 147557.30, -0.102, 0.976, 0.030, 19:03:37.015
164, 11409.47, -17918.79, -9362.01, -11308.17, -9726.12, -14950.72, 141640.00, 147609.08, 0.000, 0.000, 0.000, 19:03:37.015
165, 11405.67, -17901.53, -9428.75, -11380.59, -9804.17, -15031.82, 141680.38, 147682.28, 0.000, 0.000, 0.000, 19:03:37.016
166, 11253.19, -17906.79, -9505.88, -11373.28, -9848.04, -15032.46, 141681.44, 147680.39, 0.000, 0.000, 0.000, 19:03:37.016
167, 11156.05, -17924.96, -9505.82, -11301.22, -9806.63, -14965.52, 141639.69, 147602.53, 0.000, 0.000, 0.000, 19:03:37.016
168, 11251.11, -17933.14, -9432.32, -11259.11, -9735.17, -14924.84, 141615.22, 147557.27, 0.000, 0.000, 0.000, 19:03:37.016
169, 11405.94, -17920.87, -9397.21, -11312.08, -9741.38, -14975.04, 141645.25, 147610.45, 0.000, 0.000, 0.000, 19:03:37.017
170, 11411.91, -17906.52, -9450.23, -11379.07, -9807.77, -15040.47, 141689.25, 147687.47, 0.000, 0.000, 0.000, 19:03:37.017
171, 11261.37, -17908.98, -9517.51, -11366.11, -9843.91, -15032.04, 141688.47, 147684.03, 0.000, 0.000, 0.000, 19:03:37.017
172, 11142.48, -17927.28, -9513.77, -11297.42, -9803.12, -14962.44, 141646.78, 147606.31, 0.000, 0.000, 0.000, 19:03:37.017
173, 11224.22, -17938.41, -9435.83, -11262.13, -9731.48, -14917.31, 141624.16, 147562.59, -0.102, 0.982, 0.028, 19:03:37.017
174, 11395.61, -17925.67, -9389.79, -11312.44, -9722.11, -14955.02, 141653.69, 147615.00, 0.000, 0.000, 0.000, 19:03:37.018
175, 11399.90, -17908.73, -9448.26, -11385.46, -9783.27, -15020.86, 141695.23, 147689.66, 0.000, 0.000, 0.000, 19:03:37.018
176, 11252.38, -17914.03, -9520.48, -11379.74, -9820.31, -15010.45, 141697.97, 147690.02, 0.000, 0.000, 0.000, 19:03:37.018
177, 11153.74, -17931.51, -9517.17, -11306.16, -9783.38, -14938.27, 141656.17, 147612.28, 0.000, 0.000, 0.000, 19:03:37.018
178, 11245.30, -17941.81, -9440.73, -11265.12, -9736.26, -14895.51, 141632.92, 147567.42, 0.000, 0.000, 0.000, 19:03:37.018
179, 11406.23, -17928.98, -9394.48, -11310.81, -9719.68, -14933.27, 141662.41, 147619.55, 0.000, 0.000, 0.000, 19:03:37.018
180, 11406.90, -17912.82, -9441.96, -11373.82, -9765.63, -14995.11, 141705.16, 147695.77, 0.000, 0.000, 0.000, 19:03:37.018
181, 11254.64, -17915.50, -9509.10, -11365.46, -9805.44, -14990.17, 141705.83, 147694.63, 0.000, 0.000, 0.000, 19:03:37.019
182, 11154.03, -17932.71, -9505.97, -11293.13, -9770.86, -14921.13, 141663.98, 147617.05, 0.000, 0.000, 0.000, 19:03:37.019
183, 11244.27, -17942.06, -9428.43, -11253.59, -9749.52, -14885.79, 141639.58, 147570.75, -0.098, 0.982, 0.032, 19:03:37.019
184, 11399.90, -17929.03, -9383.51, -11302.61, -9733.07, -14942.63, 141668.53, 147622.19, 0.000, 0.000, 0.000, 19:03:37.019
185, 11397.82, -17912.91, -9440.06, -11372.54, -9778.02, -15022.83, 141711.28, 147698.48, 0.000, 0.000, 0.000, 19:03:37.020
186, 11248.60, -17917.27, -9514.51, -11368.45, -9824.51, -15028.46, 141713.94, 147699.67, 0.000, 0.000, 0.000, 19:03:37.020
187, 11147.28, -17936.20, -9514.87, -11295.95, -9789.01, -14964.04, 141673.88, 147624.08, 0.000, 0.000, 0.000, 19:03:37.020
188, 11234.23, -17944.49, -9441.15, -11256.85, -9734.65, -14922.29, 141647.66, 147575.55, 0.000, 0.000, 0.000, 19:03:37.020
189, 11389.46, -17931.73, -9403.60, -11314.09, -9729.20, -14971.40, 141675.52, 147625.64, 0.000, 0.000, 0.000, 19:03:37.020
190, 11390.81, -17915.50, -9460.87, -11389.22, -9791.25, -15046.90, 141718.19, 147701.97, 0.000, 0.000, 0.000, 19:03:37.020
191, 11246.32, -17919.33, -9533.33, -11382.65, -9838.43, -15045.43, 141721.30, 147703.92, 0.000, 0.000, 0.000, 19:03:37.021
192, 11145.27, -17937.10, -9530.49, -11310.47, -9797.46, -14975.09, 141680.47, 147627.44, -0.100, 0.978, 0.032, 19:03:37.021
193, 11222.77, -17947.04, -9456.15, -11270.33, -9734.65, -14930.99, 141654.63, 147579.16, 0.000, 0.000, 0.000, 19:03:37.021
194, 11369.82, -17934.32, -9415.22, -11321.09, -9734.01, -14975.49, 141681.47, 147627.67, 0.000, 0.000, 0.000, 19:03:37.022
195, 11389.80, -17917.58, -9461.78, -11385.04, -9787.61, -15032.06, 141724.19, 147704.08, 0.000, 0.000, 0.000, 19:03:37.022
196, 11253.01, -17920.09, -9530.27, -11377.86, -9824.84, -15021.69, 141726.91, 147706.02, 0.000, 0.000, 0.000, 19:03:37.022
197, 11153.59, -17938.10, -9526.69, -11302.76, -9784.57, -14941.94, 141686.78, 147630.61, 0.000, 0.000, 0.000, 19:03:37.022
198, 11246.79, -17947.98, -9447.28, -11258.17, -9762.26, -14889.19, 141661.50, 147582.48, 0.000, 0.000, 0.000, 19:03:37.022
199, 11414.28, -17935.42, -9401.50, -11306.65, -9740.93, -14928.53, 141689.89, 147632.16, 0.000, 0.000, 0.000, 19:03:37.022
200, 11417.79, -17919.55, -9454.77, -11381.60, -9769.08, -14997.48, 141733.88, 147710.11, 0.000, 0.000, 0.000, 19:03:37.023
201, 11274.69, -17920.85, -9518.18, -11372.52, -9806.36, -14988.27, 141735.88, 147711.67, 0.000, 0.000, 0.000, 19:03:37.023
202, 11169.61, -17941.32, -9518.20, -11301.00, -9776.00, -14924.33, 141697.98, 147638.39, -0.100, 0.976, 0.030, 19:03:37.023
203, 11251.29, -17950.19, -9450.83, -11259.56, -9759.26, -14893.68, 141670.66, 147587.94, 0.000, 0.000, 0.000, 19:03:37.023
204, 11405.07, -17935.49, -9411.80, -11309.13, -9737.18, -14949.25, 141695.86, 147634.20, 0.000, 0.000, 0.000, 19:03:37.023
205, 11413.67, -17920.15, -9460.29, -11375.90, -9774.17, -15022.61, 141740.52, 147712.91, 0.000, 0.000, 0.000, 19:03:37.024
206, 11275.52, -17922.48, -9526.47, -11364.10, -9819.48, -15026.90, 141743.89, 147716.39, 0.000, 0.000, 0.000, 19:03:37.024
207, 11173.01, -17940.16, -9523.72, -11283.63, -9787.61, -14964.29, 141703.55, 147640.83, 0.000, 0.000, 0.000, 19:03:37.024
208, 11255.89, -17950.15, -9441.76, -11231.66, -9753.83, -14920.68, 141676.86, 147590.70, 0.000, 0.000, 0.000, 19:03:37.024
209, 11418.23, -17936.56, -9389.32, -11276.57, -9733.25, -14964.04, 141702.44, 147637.02, 0.000, 0.000, 0.000, 19:03:37.024
210, 11431.93, -17921.23, -9435.16, -11343.02, -9778.02, -15029.02, 141747.16, 147715.70, 0.000, 0.000, 0.000, 19:03:37.025
211, 11289.55, -17924.00, -9508.79, -11337.36, -9825.25, -15029.80, 141751.77, 147720.80, 0.000, 0.000, 0.000, 19:03:37.025
212, 11183.23, -17943.06, -9508.36, -11265.95, -9791.25, -14956.80, 141713.09, 147647.11, -0.102, 0.982, 0.028, 19:03:37.025
213, 11265.35, -17953.64, -9430.60, -11220.44, -9760.20, -14905.17, 141686.50, 147596.75, 0.000, 0.000, 0.000, 19:03:37.025
214, 11421.99, -17939.26, -9385.07, -11269.01, -9745.72, -14946.66, 141710.80, 147641.41, 0.000, 0.000, 0.000, 19:03:37.026
215, 11428.20, -17923.13, -9438.60, -11343.38, -9788.23, -15018.09, 141754.94, 147719.72, 0.000, 0.000, 0.000, 19:03:37.026
216, 11290.25, -17926.23, -9506.35, -11337.63, -9830.88, -15010.47, 141760.59, 147726.11, 0.000, 0.000, 0.000, 19:03:37.026
217, 11180.30, -17943.35, -9508.43, -11268.99, -9795.43, -14936.82, 141719.98, 147650.56, 0.000, 0.000, 0.000, 19:03:37.026
218, 11253.88, -17955.42, -9437.53, -11227.10, -9755.58, -14888.97, 141693.84, 147600.16, 0.000, 0.000, 0.000, 19:03:37.027
219, 11413.74, -17943.91, -9391.73, -11273.35, -9736.08, -14923.86, 141720.31, 147646.59, 0.000, 0.000, 0.000, 19:03:37.027
220, 11427.35, -17927.35, -9441.09, -11343.76, -9780.99, -14986.89, 141764.28, 147724.69, 0.000, 0.000, 0.000, 19:03:37.028
221, 11286.49, -17929.21, -9515.50, -11344.11, -9828.93, -14984.97, 141769.17, 147730.67, 0.000, 0.000, 0.000, 19:03:37.028
222, 11175.36, -17947.58, -9519.88, -11274.44, -9799.05, -14916.30, 141730.19, 147656.94, -0.100, 0.980, 0.026, 19:03:37.028
223, 11251.42, -17956.05, -9444.37, -11226.81, -9764.29, -14868.31, 141700.33, 147602.64, 0.000, 0.000, 0.000, 19:03:37.029
224, 11415.35, -17944.36, -9396.63, -11272.74, -9749.72, -14913.91, 141726.38, 147648.38, 0.000, 0.000, 0.000, 19:03:37.029
225, 11431.53, -17928.89, -9444.44, -11343.91, -9785.21, -14989.42, 141771.67, 147728.33, 0.000, 0.000, 0.000, 19:03:37.029
226, 11285.78, -17931.44, -9521.66, -11345.21, -9836.04, -15004.70, 141777.73, 147736.08, 0.000, 0.000, 0.000, 19:03:37.480
227, 11174.26, -17949.54, -9526.80, -11270.64, -9807.41, -14947.86, 141738.47, 147662.23, 0.000, 0.000, 0.000, 19:03:37.481
228, 11248.94, -17959.22, -9452.51, -11216.51, -9748.38, -14906.45, 141708.88, 147608.03, 0.000, 0.000, 0.000, 19:03:37.481
229, 11411.44, -17948.67, -9405.97, -11256.09, -9739.08, -14954.55, 141734.78, 147653.58, 0.000, 0.000, 0.000, 19:03:37.482
230, 11431.20, -17932.78, -9453.02, -11327.86, -9797.69, -15032.24, 141779.69, 147733.22, 0.000, 0.000, 0.000, 19:03:37.483
231, 11288.26, -17935.80, -9526.07, -11328.56, -9848.71, -15038.70, 141786.77, 147742.20, 0.000, 0.000, 0.000, 19:03:37.483
232, 11174.51, -17954.17, -9525.87, -11253.41, -9814.14, -14968.52, 141748.17, 147669.19, -0.094, 0.978, 0.022, 19:03:37.484
233, 11248.45, -17963.27, -9449.07, -11204.84, -9765.01, -14915.92, 141717.83, 147613.89, 0.000, 0.000, 0.000, 19:03:37.484
234, 11415.17, -17952.36, -9403.29, -11248.94, -9749.56, -14950.79, 141743.31, 147658.44, 0.000, 0.000, 0.000, 19:03:37.484
235, 11433.95, -17936.54, -9452.55, -11321.09, -9791.61, -15016.26, 141788.39, 147738.09, 0.000, 0.000, 0.000, 19:03:37.485
236, 11292.62, -17937.03, -9518.38, -11318.05, -9834.79, -15010.85, 141793.83, 147745.78, 0.000, 0.000, 0.000, 19:03:37.485
237, 11182.26, -17954.53, -9516.57, -11247.80, -9802.47, -14939.70, 141754.83, 147672.58, 0.000, 0.000, 0.000, 19:03:37.486
238, 11257.52, -17963.72, -9443.19, -11202.43, -9766.93, -14891.49, 141724.11, 147616.55, 0.000, 0.000, 0.000, 19:03:37.486
239, 11421.03, -17951.20, -9392.29, -11247.04, -9755.93, -14931.55, 141747.73, 147658.72, 0.000, 0.000, 0.000, 19:03:37.486
240, 11437.75, -17936.25, -9440.17, -11321.63, -9793.06, -15004.90, 141794.05, 147739.80, 0.000, 0.000, 0.000, 19:03:37.487
241, 11299.57, -17938.82, -9511.38, -11321.38, -9838.79, -15003.47, 141802.34, 147750.80, -0.100, 0.984, 0.028, 19:03:37.488
242, 11185.62, -17957.08, -9518.71, -11251.00, -9805.60, -14930.67, 141764.19, 147678.38, 0.000, 0.000, 0.000, 19:03:37.488
243, 11251.17, -17967.03, -9451.12, -11207.92, -9775.45, -14881.95, 141733.50, 147622.11, 0.000, 0.000, 0.000, 19:03:37.489
244, 11403.97, -17953.64, -9404.97, -11255.06, -9756.74, -14922.18, 141755.30, 147662.41, 0.000, 0.000, 0.000, 19:03:37.489
245, 11414.50, -17939.15, -9453.89, -11330.81, -9792.10, -14996.54, 141801.89, 147743.80, 0.000, 0.000, 0.000, 19:03:37.490
246, 11269.84, -17939.64, -9531.66, -11337.68, -9845.00, -15008.26, 141807.89, 147753.09, 0.000, 0.000, 0.000, 19:03:37.491
247, 11160.07, -17959.02, -9535.83, -11268.27, -9815.08, -14945.69, 141770.72, 147682.00, 0.000, 0.000, 0.000, 19:03:37.491
248, 11233.11, -17968.10, -9459.73, -11218.50, -9758.55, -14901.33, 141738.52, 147623.80, 0.000, 0.000, 0.000, 19:03:37.492
249, 11398.61, -17955.96, -9410.91, -11261.32, -9759.73, -14946.37, 141760.92, 147664.25, 0.000, 0.000, 0.000, 19:03:37.492
250, 11424.20, -17940.56, -9459.59, -11333.92, -9813.26, -15025.49, 141807.20, 147745.56, 0.000, 0.000, 0.000, 19:03:37.493
251, 11287.67, -17942.77, -9530.49, -11330.25, -9860.65, -15033.02, 141816.34, 147757.97, -0.102, 0.986, 0.030, 19:03:37.493
252, 11166.33, -17960.27, -9535.03, -11260.96, -9829.18, -14971.24, 141777.88, 147685.48, 0.000, 0.000, 0.000, 19:03:37.493
253, 11231.82, -17974.31, -9458.41, -11205.13, -9777.90, -14919.25, 141750.20, 147631.64, 0.000, 0.000, 0.000, 19:03:37.494
254, 11394.52, -17963.78, -9407.29, -11245.70, -9763.49, -14955.08, 141773.89, 147673.09, 0.000, 0.000, 0.000, 19:03:37.495
255, 11423.06, -17946.01, -9451.75, -11316.49, -9809.49, -15023.77, 141818.08, 147752.27, 0.000, 0.000, 0.000, 19:03:37.495
0, 11291.56, -17947.15, -9516.50, -11312.98, -9852.83, -15022.14, 141827.02, 147764.98, 0.000, 0.000, 0.000, 19:03:37.496
1, 11175.89, -17965.57, -9518.20, -11239.06, -9818.88, -14949.85, 141790.00, 147694.31, 0.000, 0.000, 0.000, 19:03:37.497
2, 11245.97, -17977.55, -9448.22, -11187.63, -9786.13, -14896.48, 141760.09, 147637.77, 0.000, 0.000, 0.000, 19:03:37.497
3, 11414.01, -17964.50, -9398.51, -11227.42, -9763.67, -14931.72, 141780.89, 147675.91, 0.000, 0.000, 0.000, 19:03:37.498
4, 11441.32, -17945.79, -9444.55, -11301.58, -9799.76, -15004.10, 141824.05, 147754.33, 0.000, 0.000, 0.000, 19:03:37.499
5, 11301.58, -17947.13, -9517.71, -11309.27, -9852.92, -15016.71, 141833.28, 147767.89, -0.104, 0.982, 0.028, 19:03:37.499
6, 11189.84, -17965.08, -9515.18, -11235.98, -9817.98, -14947.73, 141796.09, 147697.14, 0.000, 0.000, 0.000, 19:03:37.500
7, 11259.11, -17975.21, -9442.38, -11181.42, -9771.82, -14896.45, 141763.45, 147637.73, 0.000, 0.000, 0.000, 19:03:37.500
8, 11423.44, -17963.52, -9390.91, -11222.97, -9757.43, -14935.19, 141784.58, 147676.03, 0.000, 0.000, 0.000, 19:03:37.500
9, 11450.15, -17948.72, -9436.46, -11298.85, -9796.63, -15008.46, 141831.97, 147758.80, 0.000, 0.000, 0.000, 19:03:37.501
10, 11307.59, -17949.34, -9514.60, -11307.93, -9843.46, -15017.26, 141841.17, 147772.47, 0.000, 0.000, 0.000, 19:03:37.501
11, 11185.91, -17966.58, -9522.71, -11240.49, -9816.80, -14949.83, 141803.17, 147701.13, 0.000, 0.000, 0.000, 19:03:37.501
12, 11247.11, -17979.63, -9451.55, -11190.40, -9803.27, -14893.62, 141773.33, 147644.20, 0.000, 0.000, 0.000, 19:03:37.502
13, 11402.16, -17969.39, -9402.64, -11233.32, -9774.84, -14928.77, 141795.80, 147683.31, 0.000, 0.000, 0.000, 19:03:37.502
14, 11427.96, -17950.37, -9454.36, -11314.07, -9789.21, -15004.97, 141838.75, 147761.44, 0.000, 0.000, 0.000, 19:03:37.502
15, 11296.26, -17950.98, -9535.01, -11326.48, -9842.57, -15018.56, 141848.53, 147776.08, -0.098, 0.984, 0.024, 19:03:37.503
16, 11177.28, -17968.90, -9544.19, -11261.05, -9816.93, -14951.13, 141811.70, 147706.00, 0.000, 0.000, 0.000, 19:03:37.503
17, 11238.55, -17978.92, -9470.01, -11206.87, -9803.61, -14894.22, 141778.78, 147645.50, 0.000, 0.000, 0.000, 19:03:37.504
18, 11402.36, -17968.07, -9420.21, -11250.24, -9782.73, -14933.63, 141800.69, 147683.53, 0.000, 0.000, 0.000, 19:03:37.504
19, 11430.26, -17949.93, -9468.22, -11325.45, -9796.41, -15015.05, 141845.00, 147763.16, 0.000, 0.000, 0.000, 19:03:37.504
20, 11288.10, -17949.59, -9542.65, -11330.50, -9851.26, -15027.81, 141854.41, 147777.77, 0.000, 0.000, 0.000, 19:03:37.505
21, 11167.69, -17967.25, -9542.32, -11252.47, -9823.21, -14957.81, 141817.48, 147707.98, 0.000, 0.000, 0.000, 19:03:37.505
22, 11236.58, -17978.83, -9462.61, -11192.23, -9793.75, -14897.86, 141785.31, 147648.16, 0.000, 0.000, 0.000, 19:03:37.505
23, 11399.61, -17969.57, -9405.21, -11229.61, -9769.03, -14929.96, 141807.59, 147686.44, 0.000, 0.000, 0.000, 19:03:37.506
24, 11434.88, -17952.45, -9441.20, -11299.79, -9788.37, -14999.52, 141853.02, 147767.52, 0.000, 0.000, 0.000, 19:03:37.506
25, 11302.56, -17950.39, -9508.28, -11303.52, -9837.38, -15011.32, 141861.72, 147781.86, -0.106, 0.988, 0.028, 19:03:37.507
26, 11179.87, -17968.83, -9518.31, -11233.20, -9815.97, -14952.09, 141825.91, 147713.08, 0.000, 0.000, 0.000, 19:03:37.507
27, 11236.27, -17980.79, -9452.64, -11183.67, -9806.85, -14903.05, 141793.45, 147652.73, 0.000, 0.000, 0.000, 19:03:37.507
28, 11405.22, -17970.06, -9401.88, -11222.59, -9779.92, -14941.54, 141813.97, 147689.08, 0.000, 0.000, 0.000, 19:03:37.508
29, 11442.57, -17952.34, -9441.96, -11296.21, -9784.90, -15012.24, 141858.98, 147769.75, 0.000, 0.000, 0.000, 19:03:37.508
30, 11312.42, -17951.11, -9509.10, -11302.14, -9829.20, -15013.73, 141869.22, 147786.05, 0.000, 0.000, 0.000, 19:03:37.508
31, 11188.19, -17969.77, -9515.45, -11233.43, -9810.11, -14943.21, 141833.95, 147718.22, 0.000, 0.000, 0.000, 19:03:37.509
32, 11246.73, -17981.24, -9438.81, -11180.30, -9834.41, -14881.50, 141801.47, 147657.58, 0.000, 0.000, 0.000, 19:03:37.509
33, 11414.16, -17968.37, -9385.32, -11223.12, -9795.18, -14914.40, 141820.34, 147691.89, 0.000, 0.000, 0.000, 19:03:37.509
34, 11445.05, -17951.06, -9428.50, -11299.19, -9777.21, -14985.75, 141866.16, 147773.25, -0.106, 0.982, 0.030, 19:03:37.510
35, 11307.99, -17951.91, -9506.08, -11311.08, -9828.11, -14994.91, 141878.70, 147792.14, 0.000, 0.000, 0.000, 19:03:37.510
36, 11177.55, -17968.05, -9524.46, -11251.55, -9811.99, -14932.02, 141841.06, 147722.14, 0.000, 0.000, 0.000, 19:03:37.510
37, 11232.29, -17982.89, -9459.68, -11203.79, -9829.04, -14873.88, 141810.97, 147663.67, 0.000, 0.000, 0.000, 19:03:37.511
38, 11399.08, -17972.43, -9407.18, -11239.37, -9797.44, -14903.54, 141831.30, 147698.94, 0.000, 0.000, 0.000, 19:03:37.511
39, 11432.74, -17953.12, -9452.58, -11314.90, -9793.98, -14976.79, 141875.14, 147778.52, 0.000, 0.000, 0.000, 19:03:37.511
40, 11294.49, -17949.46, -9524.53, -11324.62, -9845.43, -14988.83, 141884.11, 147794.38, 0.000, 0.000, 0.000, 19:03:37.512
41, 11165.10, -17968.37, -9531.95, -11256.11, -9821.22, -14926.56, 141849.89, 147728.06, 0.000, 0.000, 0.000, 19:03:37.512
42, 11215.37, -17982.20, -9456.02, -11196.64, -9799.21, -14872.22, 141818.03, 147667.48, 0.000, 0.000, 0.000, 19:03:37.513
43, 11380.10, -17971.70, -9398.66, -11230.21, -9788.99, -14909.73, 141836.88, 147700.95, 0.000, 0.000, 0.000, 19:03:37.513
44, 11408.51, -17954.53, -9438.92, -11304.77, -9808.64, -14995.83, 141882.47, 147782.27, -0.106, 0.984, 0.024, 19:03:37.513
45, 11271.67, -17952.83, -9511.76, -11314.92, -9867.31, -15021.76, 141893.31, 147800.39, 0.000, 0.000, 0.000, 19:03:37.514
46, 11148.13, -17970.20, -9522.11, -11248.34, -9846.43, -14969.75, 141857.22, 147732.53, 0.000, 0.000, 0.000, 19:03:37.514
47, 11214.09, -17982.80, -9448.17, -11187.67, -9774.91, -14922.83, 141823.17, 147669.48, 0.000, 0.000, 0.000, 19:03:37.514
48, 11385.84, -17971.16, -9388.87, -11220.87, -9756.02, -14956.47, 141839.36, 147699.86, 0.000, 0.000, 0.000, 19:03:37.515
49, 11427.46, -17954.08, -9426.47, -11298.94, -9819.34, -15031.84, 141885.20, 147781.58, 0.000, 0.000, 0.000, 19:03:37.515
50, 11301.60, -17953.88, -9499.45, -11311.46, -9872.52, -15043.59, 141898.97, 147802.77, 0.000, 0.000, 0.000, 19:03:37.516
51, 11175.40, -17971.43, -9506.53, -11243.71, -9838.79, -14971.85, 141864.14, 147736.02, 0.000, 0.000, 0.000, 19:03:37.516
52, 11220.71, -17985.60, -9437.78, -11189.39, -9799.23, -14906.87, 141831.58, 147674.27, 0.000, 0.000, 0.000, 19:03:37.517
53, 11383.50, -17976.66, -9375.57, -11220.33, -9784.59, -14927.66, 141850.98, 147707.67, 0.000, 0.000, 0.000, 19:03:37.517
54, 11423.66, -17959.45, -9411.51, -11298.96, -9798.22, -15003.50, 141896.95, 147789.64, -0.102, 0.984, 0.022, 19:03:37.517
55, 11298.23, -17958.58, -9477.99, -11311.26, -9851.44, -15014.83, 141910.70, 147811.20, 0.000, 0.000, 0.000, 19:03:37.518
56, 11172.05, -17975.36, -9486.19, -11242.79, -9829.40, -14947.15, 141875.41, 147744.27, 0.000, 0.000, 0.000, 19:03:37.518
57, 11222.32, -17986.96, -9411.80, -11182.82, -9811.10, -14880.70, 141840.20, 147679.63, 0.000, 0.000, 0.000, 19:03:37.519
58, 11390.36, -17976.66, -9346.45, -11218.59, -9792.92, -14902.11, 141857.67, 147710.63, 0.000, 0.000, 0.000, 19:03:37.520
59, 11438.33, -17960.10, -9380.16, -11298.05, -9790.76, -14967.64, 141904.77, 147793.63, 0.000, 0.000, 0.000, 19:03:37.520
60, 11307.84, -17955.76, -9452.91, -11314.88, -9837.63, -14977.50, 141915.52, 147812.70, 0.000, 0.000, 0.000, 19:03:37.521
61, 11177.08, -17972.48, -9461.07, -11251.17, -9815.68, -14911.03, 141880.38, 147746.34, 0.000, 0.000, 0.000, 19:03:37.521
62, 11225.96, -17987.03, -9386.32, -11192.88, -9834.19, -14848.15, 141848.05, 147684.41, 0.000, 0.000, 0.000, 19:03:37.522
63, 11395.77, -17976.70, -9324.72, -11224.82, -9808.55, -14874.44, 141865.98, 147715.47, 0.000, 0.000, 0.000, 19:03:37.522
64, 11432.67, -17956.16, -9365.87, -11306.83, -9786.44, -14955.48, 141909.28, 147794.52, -0.102, 0.990, 0.026, 19:03:37.522
65, 11302.85, -17953.39, -9439.41, -11317.27, -9832.15, -14973.63, 141922.23, 147816.13, 0.000, 0.000, 0.000, 19:03:37.523
66, 11168.23, -17971.90, -9456.62, -11253.97, -9817.38, -14915.52, 141889.03, 147751.48, 0.000, 0.000, 0.000, 19:03:37.523
67, 11214.85, -17986.96, -9388.27, -11194.07, -9819.99, -14861.09, 141856.30, 147688.83, 0.000, 0.000, 0.000, 19:03:37.523
68, 11383.88, -17977.04, -9326.31, -11223.19, -9805.51, -14894.24, 141873.52, 147718.86, 0.000, 0.000, 0.000, 19:03:37.523
69, 11425.05, -17958.87, -9359.66, -11301.73, -9793.91, -14976.58, 141919.14, 147800.33, 0.000, 0.000, 0.000, 19:03:37.523
70, 11295.36, -17955.22, -9426.54, -11316.38, -9842.12, -14993.26, 141931.84, 147821.98, 0.000, 0.000, 0.000, 19:03:37.524
71, 11166.35, -17972.01, -9435.27, -11250.46, -9822.52, -14927.50, 141897.66, 147756.63, 0.000, 0.000, 0.000, 19:03:37.524
72, 11219.23, -17985.87, -9362.01, -11190.87, -9818.70, -14866.64, 141863.66, 147692.41, 0.000, 0.000, 0.000, 19:03:37.524
73, 11392.08, -17974.36, -9305.19, -11219.66, -9798.78, -14894.22, 141878.45, 147719.77, 0.000, 0.000, 0.000, 19:03:37.525
74, 11440.72, -17956.18, -9345.96, -11293.13, -9790.38, -14971.13, 141923.92, 147801.06, -0.096, 0.986, 0.032, 19:03:37.525
75, 11313.85, -17955.67, -9419.25, -11305.45, -9842.48, -14990.02, 141940.41, 147826.88, 0.000, 0.000, 0.000, 19:03:37.525
76, 11176.94, -17973.08, -9441.06, -11242.46, -9830.68, -14937.60, 141906.97, 147762.70, 0.000, 0.000, 0.000, 19:03:37.525
77, 11214.12, -17988.21, -9376.94, -11185.68, -9790.42, -14883.71, 141872.84, 147698.33, 0.000, 0.000, 0.000, 19:03:37.526
78, 11387.59, -17978.20, -9316.81, -11212.42, -9775.78, -14907.65, 141887.48, 147725.16, 0.000, 0.000, 0.000, 19:03:37.526
79, 11451.38, -17959.69, -9342.65, -11278.78, -9784.27, -14971.35, 141932.83, 147806.41, 0.000, 0.000, 0.000, 19:03:37.526
80, 11332.54, -17957.82, -9409.75, -11296.26, -9831.73, -14983.83, 141948.59, 147831.92, 0.000, 0.000, 0.000, 19:03:37.526
81, 11192.41, -17975.85, -9429.02, -11242.08, -9822.56, -14920.04, 141916.23, 147769.17, 0.000, 0.000, 0.000, 19:03:37.527
82, 11240.58, -17988.71, -9354.23, -11180.21, -9852.78, -14848.40, 141881.00, 147703.14, 0.000, 0.000, 0.000, 19:03:37.527
83, 11406.59, -17978.27, -9297.66, -11216.71, -9815.97, -14877.92, 141896.31, 147730.19, -0.100, 0.982, 0.030, 19:03:37.527
84, 11449.08, -17961.04, -9344.04, -11301.58, -9781.17, -14958.64, 141942.98, 147812.89, 0.000, 0.000, 0.000, 19:03:37.527
85, 11321.87, -17955.78, -9417.71, -11316.89, -9827.30, -14978.42, 141955.95, 147835.91, 0.000, 0.000, 0.000, 19:03:37.527
86, 11184.81, -17972.23, -9438.69, -11257.03, -9815.01, -14926.29, 141922.23, 147771.84, 0.000, 0.000, 0.000, 19:03:37.528
87, 11226.25, -17985.49, -9377.65, -11197.82, -9823.26, -14872.22, 141885.94, 147704.88, 0.000, 0.000, 0.000, 19:03:37.528
88, 11400.78, -17975.81, -9318.13, -11224.55, -9814.29, -14898.78, 141901.13, 147731.23, 0.000, 0.000, 0.000, 19:03:37.528
89, 11454.58, -17957.44, -9359.14, -11300.75, -9792.46, -14979.38, 141946.83, 147812.91, 0.000, 0.000, 0.000, 19:03:37.529
90, 11327.46, -17953.64, -9439.16, -11319.10, -9841.85, -15007.77, 141961.69, 147838.23, 0.000, 0.000, 0.000, 19:03:37.960
91, 11187.81, -17971.00, -9459.64, -11255.42, -9830.72, -14954.79, 141929.44, 147775.89, 0.000, 0.000, 0.000, 19:03:37.961
92, 11219.73, -17985.93, -9392.61, -11197.75, -9795.07, -14893.26, 141894.17, 147709.70, 0.000, 0.000, 0.000, 19:03:37.961
93, 11387.72, -17978.58, -9325.97, -11222.63, -9786.91, -14911.56, 141909.75, 147736.13, -0.102, 0.984, 0.030, 19:03:37.962
94, 11448.59, -17958.75, -9357.54, -11296.48, -9789.82, -14984.21, 141953.83, 147816.19, 0.000, 0.000, 0.000, 19:03:37.963
95, 11322.45, -17954.57, -9434.74, -11319.75, -9847.53, -15009.96, 141968.91, 147842.13, 0.000, 0.000, 0.000, 19:03:37.963
96, 11185.75, -17972.72, -9453.31, -11257.34, -9833.63, -14955.06, 141937.63, 147781.14, 0.000, 0.000, 0.000, 19:03:37.963
97, 11225.92, -17987.03, -9386.86, -11192.32, -9806.49, -14892.27, 141901.52, 147713.80, 0.000, 0.000, 0.000, 19:03:37.963
98, 11392.55, -17978.11, -9325.42, -11219.19, -9786.20, -14911.45, 141915.05, 147737.78, 0.000, 0.000, 0.000, 19:03:37.964
99, 11450.87, -17960.32, -9359.73, -11294.87, -9788.95, -14980.27, 141960.94, 147819.66, 0.000, 0.000, 0.000, 19:03:37.964
100, 11340.18, -17958.98, -9424.72, -11303.48, -9832.33, -14985.70, 141980.09, 147850.09, 0.000, 0.000, 0.000, 19:03:37.965
101, 11209.62, -17974.85, -9438.29, -11235.89, -9814.45, -14917.87, 141947.45, 147787.89, 0.000, 0.000, 0.000, 19:03:37.965
102, 11243.69, -17987.63, -9375.30, -11174.17, -9837.65, -14852.31, 141909.97, 147718.81, 0.000, 0.000, 0.000, 19:03:37.966
103, 11415.01, -17976.01, -9312.45, -11200.73, -9828.40, -14869.21, 141921.70, 147740.64, -0.108, 0.982, 0.030, 19:03:37.966
104, 11469.35, -17957.21, -9344.57, -11275.92, -9771.78, -14939.39, 141967.64, 147822.45, 0.000, 0.000, 0.000, 19:03:37.967
105, 11346.26, -17955.36, -9415.27, -11291.36, -9809.31, -14959.17, 141986.55, 147852.78, 0.000, 0.000, 0.000, 19:03:37.967
106, 11204.33, -17973.86, -9434.02, -11226.86, -9802.36, -14902.65, 141956.58, 147793.50, 0.000, 0.000, 0.000, 19:03:37.967
107, 11237.81, -17987.68, -9369.74, -11163.67, -9855.20, -14844.33, 141920.14, 147725.31, 0.000, 0.000, 0.000, 19:03:37.968
108, 11403.84, -17975.47, -9315.96, -11194.85, -9831.21, -14878.68, 141930.78, 147745.78, 0.000, 0.000, 0.000, 19:03:37.968
109, 11456.92, -17956.14, -9360.02, -11277.24, -9777.26, -14965.59, 141975.33, 147826.30, 0.000, 0.000, 0.000, 19:03:37.969
110, 11336.22, -17953.75, -9438.07, -11294.69, -9823.28, -14994.85, 141993.94, 147856.83, 0.000, 0.000, 0.000, 19:03:37.969
111, 11192.70, -17970.49, -9463.88, -11230.54, -9809.89, -14944.69, 141962.31, 147796.25, 0.000, 0.000, 0.000, 19:03:37.970
112, 11214.92, -17983.74, -9412.32, -11175.07, -9805.91, -14894.20, 141923.83, 147725.80, 0.000, 0.000, 0.000, 19:03:37.970
113, 11372.66, -17977.35, -9365.69, -11208.66, -9795.12, -14928.15, 141937.69, 147748.95, -0.104, 0.976, 0.028, 19:03:37.971
114, 11426.41, -17958.26, -9403.51, -11290.58, -9789.10, -15009.62, 141981.92, 147828.94, 0.000, 0.000, 0.000, 19:03:37.972
115, 11294.40, -17954.96, -9481.92, -11316.51, -9845.21, -15039.13, 141999.89, 147859.02, 0.000, 0.000, 0.000, 19:03:37.973
116, 11146.68, -17973.35, -9505.59, -11258.08, -9830.03, -14981.75, 141970.03, 147800.17, 0.000, 0.000, 0.000, 19:03:37.973
117, 11171.54, -17989.89, -9445.31, -11198.49, -9820.73, -14919.54, 141933.86, 147731.64, 0.000, 0.000, 0.000, 19:03:37.975
118, 11339.46, -17982.09, -9383.84, -11225.98, -9804.12, -14939.10, 141945.78, 147752.33, 0.000, 0.000, 0.000, 19:03:37.975
119, 11407.03, -17964.43, -9412.39, -11302.09, -9781.77, -15008.21, 141991.63, 147834.05, 0.000, 0.000, 0.000, 19:03:37.975
120, 11299.12, -17960.01, -9479.62, -11316.08, -9828.67, -15021.09, 142009.48, 147864.50, 0.000, 0.000, 0.000, 19:03:37.976
121, 11164.43, -17977.78, -9491.82, -11249.10, -9817.06, -14953.58, 141979.75, 147805.91, 0.000, 0.000, 0.000, 19:03:37.976
122, 11196.91, -17992.88, -9417.57, -11176.25, -9852.92, -14878.71, 141942.83, 147736.36, 0.000, 0.000, 0.000, 19:03:37.976
123, 11366.78, -17982.85, -9343.16, -11193.69, -9844.29, -14889.10, 141953.38, 147755.48, -0.100, 0.980, 0.028, 19:03:37.977
124, 11428.54, -17964.21, -9360.20, -11263.51, -9772.50, -14954.39, 141999.13, 147837.19, 0.000, 0.000, 0.000, 19:03:37.977
125, 11311.79, -17959.04, -9421.80, -11280.28, -9800.77, -14971.58, 142016.83, 147867.72, 0.000, 0.000, 0.000, 19:03:37.977
126, 11169.05, -17976.14, -9432.26, -11218.70, -9799.72, -14915.23, 141986.86, 147809.31, 0.000, 0.000, 0.000, 19:03:37.977
127, 11200.35, -17989.35, -9359.55, -11151.84, -9863.67, -14854.19, 141948.30, 147738.20, 0.000, 0.000, 0.000, 19:03:37.978
128, 11377.91, -17978.65, -9290.28, -11176.70, -9844.83, -14887.33, 141958.09, 147756.06, 0.000, 0.000, 0.000, 19:03:37.978
129, 11443.62, -17959.76, -9315.78, -11257.61, -9777.75, -14976.58, 142003.78, 147837.63, 0.000, 0.000, 0.000, 19:03:37.978
130, 11327.08, -17953.44, -9381.14, -11278.53, -9818.79, -15011.05, 142021.39, 147868.41, 0.000, 0.000, 0.000, 19:03:37.979
131, 11185.24, -17968.46, -9389.72, -11214.92, -9814.76, -14961.34, 141989.88, 147808.84, 0.000, 0.000, 0.000, 19:03:37.979
132, 11208.68, -17984.75, -9318.42, -11149.90, -9814.96, -14900.12, 141953.16, 147739.23, -0.104, 0.980, 0.028, 19:03:37.979
133, 11376.55, -17976.32, -9249.15, -11168.43, -9797.64, -14916.30, 141962.97, 147756.78, 0.000, 0.000, 0.000, 19:03:37.980
134, 11449.66, -17958.66, -9275.46, -11250.21, -9781.46, -14993.28, 142009.48, 147839.16, 0.000, 0.000, 0.000, 19:03:37.980
135, 11333.81, -17955.00, -9349.73, -11285.37, -9838.14, -15019.90, 142030.20, 147873.69, 0.000, 0.000, 0.000, 19:03:37.981
136, 11188.08, -17971.41, -9372.56, -11231.77, -9829.11, -14961.61, 142000.94, 147816.63, 0.000, 0.000, 0.000, 19:03:37.982
137, 11210.72, -17986.81, -9309.64, -11169.39, -9811.45, -14892.63, 141963.59, 147746.23, 0.000, 0.000, 0.000, 19:03:37.982
138, 11375.65, -17978.27, -9246.38, -11193.91, -9801.35, -14908.17, 141972.73, 147762.86, 0.000, 0.000, 0.000, 19:03:37.983
139, 11444.47, -17959.38, -9273.67, -11271.45, -9778.49, -14977.55, 142017.80, 147843.73, 0.000, 0.000, 0.000, 19:03:37.983
140, 11339.04, -17956.23, -9337.93, -11286.78, -9823.70, -14992.37, 142039.77, 147879.83, 0.000, 0.000, 0.000, 19:03:37.984
141, 11199.36, -17972.90, -9357.98, -11230.41, -9816.51, -14931.10, 142010.97, 147823.64, 0.000, 0.000, 0.000, 19:03:37.984
142, 11221.04, -17987.43, -9294.24, -11159.98, -9852.92, -14858.63, 141972.63, 147752.27, -0.102, 0.974, 0.030, 19:03:37.985
143, 11394.76, -17977.26, -9222.26, -11172.27, -9839.01, -14861.99, 141981.09, 147768.00, 0.000, 0.000, 0.000, 19:03:37.985
144, 11467.32, -17958.58, -9243.90, -11246.82, -9759.33, -14924.50, 142027.36, 147850.39, 0.000, 0.000, 0.000, 19:03:37.985
145, 11352.72, -17951.18, -9313.19, -11274.42, -9785.42, -14945.56, 142045.83, 147883.39, 0.000, 0.000, 0.000, 19:03:37.986
146, 11199.70, -17966.71, -9337.04, -11223.06, -9785.88, -14892.74, 142016.36, 147826.63, 0.000, 0.000, 0.000, 19:03:37.986
147, 11216.66, -17980.17, -9277.52, -11159.17, -9845.97, -14832.91, 141976.63, 147753.61, 0.000, 0.000, 0.000, 19:03:37.987
148, 11384.95, -17973.84, -9214.06, -11181.88, -9864.56, -14854.16, 141988.42, 147772.19, 0.000, 0.000, 0.000, 19:03:37.987
149, 11447.13, -17954.75, -9244.23, -11257.43, -9772.27, -14935.99, 142034.41, 147854.08, 0.000, 0.000, 0.000, 19:03:37.988
150, 11327.19, -17950.28, -9321.53, -11284.28, -9802.71, -14978.66, 142055.92, 147890.41, 0.000, 0.000, 0.000, 19:03:37.988
151, 11182.44, -17963.36, -9342.51, -11225.31, -9802.98, -14934.92, 142024.34, 147831.70, 0.000, 0.000, 0.000, 19:03:37.988
152, 11204.50, -17978.02, -9278.75, -11152.67, -9824.46, -14871.46, 141985.03, 147758.75, -0.098, 0.976, 0.028, 19:03:37.989
153, 11379.14, -17970.04, -9208.90, -11166.86, -9824.08, -14887.09, 141993.88, 147773.75, 0.000, 0.000, 0.000, 19:03:37.989
154, 11452.00, -17952.61, -9235.67, -11245.41, -9770.82, -14968.69, 142040.91, 147856.47, 0.000, 0.000, 0.000, 19:03:37.990
155, 11343.91, -17946.37, -9300.81, -11267.78, -9813.71, -14996.17, 142061.64, 147892.30, 0.000, 0.000, 0.000, 19:03:37.990
156, 11197.75, -17963.49, -9320.88, -11210.09, -9809.62, -14945.92, 142034.69, 147838.59, 0.000, 0.000, 0.000, 19:03:37.991
157, 11195.30, -17980.84, -9267.32, -11149.74, -9803.59, -14889.44, 141996.84, 147767.06, 0.000, 0.000, 0.000, 19:03:37.992
158, 11350.19, -17973.33, -9203.46, -11170.69, -9792.83, -14903.90, 142003.72, 147779.92, 0.000, 0.000, 0.000, 19:03:37.992
159, 11426.14, -17953.90, -9225.88, -11245.21, -9764.07, -14973.50, 142047.75, 147859.67, 0.000, 0.000, 0.000, 19:03:37.992
160, 11324.85, -17948.36, -9304.09, -11283.81, -9821.92, -15008.46, 142069.38, 147896.53, 0.000, 0.000, 0.000, 19:03:37.993
161, 11187.38, -17963.13, -9330.85, -11230.08, -9820.62, -14954.68, 142040.66, 147841.47, 0.000, 0.000, 0.000, 19:03:37.993
162, 11209.31, -17979.65, -9266.61, -11160.27, -9822.90, -14879.04, 142002.92, 147770.02, -0.096, 0.980, 0.030, 19:03:37.994
163, 11379.63, -17972.39, -9198.68, -11177.01, -9808.66, -14889.26, 142010.63, 147783.42, 0.000, 0.000, 0.000, 19:03:37.994
164, 11456.30, -17952.94, -9215.42, -11251.51, -9766.19, -14955.42, 142055.17, 147863.72, 0.000, 0.000, 0.000, 19:03:37.994
165, 11353.37, -17947.36, -9276.00, -11276.81, -9809.53, -14974.35, 142077.72, 147902.19, 0.000, 0.000, 0.000, 19:03:37.995
166, 11213.65, -17961.10, -9287.02, -11215.26, -9796.12, -14909.64, 142048.64, 147847.03, 0.000, 0.000, 0.000, 19:03:37.995
167, 11223.10, -17976.59, -9220.63, -11148.96, -9832.96, -14833.22, 142009.52, 147773.81, 0.000, 0.000, 0.000, 19:03:37.996
168, 11388.62, -17968.83, -9145.15, -11168.36, -9843.31, -14837.22, 142016.92, 147786.13, 0.000, 0.000, 0.000, 19:03:37.996
169, 11458.82, -17948.74, -9158.00, -11256.54, -9762.71, -14912.10, 142061.30, 147866.19, 0.000, 0.000, 0.000, 19:03:37.997
170, 11344.20, -17943.33, -9214.55, -11286.25, -9791.02, -14938.43, 142084.58, 147905.56, 0.000, 0.000, 0.000, 19:03:37.997
171, 11195.56, -17959.38, -9225.10, -11223.77, -9785.95, -14883.09, 142058.09, 147853.08, 0.000, 0.000, 0.000, 19:03:37.997
172, 11205.33, -17973.80, -9184.62, -11154.77, -9831.12, -14819.09, 142017.38, 147778.06, -0.100, 0.982, 0.022, 19:03:37.998
173, 11378.78, -17964.25, -9192.31, -11164.88, -9841.16, -14832.66, 142022.98, 147788.20, 0.000, 0.000, 0.000, 19:03:37.998
174, 11457.95, -17943.64, -9146.00, -11240.78, -9758.97, -14915.97, 142067.14, 147867.89, 0.000, 0.000, 0.000, 19:03:37.998
175, 11353.14, -17937.99, -9203.87, -11271.13, -9809.49, -14957.70, 142090.39, 147907.44, 0.000, 0.000, 0.000, 19:03:37.999
176, 11205.49, -17954.80, -9229.30, -11215.81, -9807.41, -14913.26, 142064.64, 147856.06, 0.000, 0.000, 0.000, 19:03:37.999
177, 11219.88, -17971.45, -9179.35, -11144.60, -9792.90, -14844.62, 142025.53, 147782.38, 0.000, 0.000, 0.000, 19:03:37.999
178, 11392.77, -17962.46, -9196.18, -11157.57, -9786.93, -14854.99, 142029.47, 147790.67, 0.000, 0.000, 0.000, 19:03:38.000
179, 11483.75, -17944.16, -9144.52, -11229.16, -9762.21, -14929.69, 142075.69, 147872.47, 0.000, 0.000, 0.000, 19:03:38.000
180, 11379.50, -17938.64, -9186.70, -11263.18, -9817.20, -14969.23, 142099.89, 147913.83, 0.000, 0.000, 0.000, 19:03:38.001
181, 11225.40, -17952.41, -9214.26, -11208.71, -9811.12, -14923.61, 142071.80, 147860.63, -0.102, 0.984, 0.022, 19:03:38.001
182, 11227.97, -17967.61, -9170.00, -11143.13, -9786.44, -14860.11, 142030.83, 147785.02, 0.000, 0.000, 0.000, 19:03:38.001
183, 11388.62, -17962.13, -9134.35, -11157.36, -9776.12, -14872.74, 142036.45, 147794.61, 0.000, 0.000, 0.000, 19:03:38.001
184, 11474.69, -17944.87, -9132.70, -11236.02, -9760.20, -14944.80, 142082.56, 147876.30, 0.000, 0.000, 0.000, 19:03:38.002
185, 11374.31, -17935.53, -9194.08, -11264.54, -9808.64, -14972.25, 142103.73, 147914.63, 0.000, 0.000, 0.000, 19:03:38.002
186, 11225.65, -17951.96, -9222.26, -11212.24, -9806.87, -14917.20, 142078.80, 147864.56, 0.000, 0.000, 0.000, 19:03:38.002
187, 11229.18, -17968.54, -9170.99, -11147.51, -9803.61, -14843.61, 142038.89, 147789.89, 0.000, 0.000, 0.000, 19:03:38.003
188, 11387.79, -17962.89, -9135.29, -11167.62, -9798.92, -14852.15, 142044.50, 147799.05, 0.000, 0.000, 0.000, 19:03:38.003
189, 11468.21, -17945.19, -9141.13, -11249.99, -9754.26, -14921.20, 142090.75, 147880.66, 0.000, 0.000, 0.000, 19:03:38.003
190, 11363.96, -17939.24, -9205.92, -11285.87, -9799.90, -14953.18, 142116.08, 147923.48, 0.000, 0.000, 0.000, 19:03:38.003
191, 11215.97, -17953.64, -9233.37, -11233.67, -9796.84, -14901.64, 142089.91, 147872.61, -0.102, 0.978, 0.028, 19:03:38.003
192, 11221.27, -17967.92, -9177.45, -11165.17, -9824.58, -14829.47, 142048.33, 147796.25, 0.000, 0.000, 0.000, 19:03:38.003
193, 11380.37, -17960.59, -9123.89, -11179.38, -9828.80, -14838.67, 142052.86, 147803.94, 0.000, 0.000, 0.000, 19:03:38.004
194, 11457.06, -17941.52, -9142.80, -11255.02, -9757.47, -14918.92, 142097.50, 147883.97, 0.000, 0.000, 0.000, 19:03:38.004
195, 11352.29, -17935.08, -9215.27, -11291.30, -9812.55, -14960.87, 142122.67, 147927.06, 0.000, 0.000, 0.000, 19:03:38.004
196, 11201.64, -17949.81, -9242.00, -11240.89, -9813.62, -14915.25, 142097.25, 147877.30, 0.000, 0.000, 0.000, 19:03:38.004
197, 11208.57, -17965.93, -9188.65, -11167.07, -9791.87, -14847.37, 142056.31, 147801.39, 0.000, 0.000, 0.000, 19:03:38.004
198, 11372.32, -17961.79, -9142.67, -11177.86, -9794.02, -14859.93, 142061.78, 147809.72, 0.000, 0.000, 0.000, 19:03:38.004
199, 11461.19, -17942.24, -9141.44, -11254.08, -9761.92, -14939.17, 142105.70, 147888.84, 0.000, 0.000, 0.000, 19:03:38.005
200, 11367.05, -17936.63, -9201.83, -11282.18, -9811.70, -14976.65, 142132.25, 147933.73, 0.000, 0.000, 0.000, 19:03:38.005
201, 11219.70, -17949.77, -9223.71, -11221.04, -9805.87, -14924.95, 142105.75, 147883.30, -0.098, 0.978, 0.026, 19:03:38.005
202, 11221.85, -17963.92, -9170.52, -11148.27, -9795.90, -14853.54, 142062.77, 147805.08, 0.000, 0.000, 0.000, 19:03:38.005
203, 11378.49, -17958.15, -9109.32, -11162.82, -9779.29, -14864.00, 142065.61, 147810.27, 0.000, 0.000, 0.000, 19:03:38.005
204, 11459.98, -17941.12, -9134.91, -11246.68, -9756.42, -14943.21, 142111.36, 147891.11, 0.000, 0.000, 0.000, 19:03:38.005
205, 11366.78, -17935.58, -9202.30, -11276.88, -9809.80, -14975.15, 142138.52, 147936.78, 0.000, 0.000, 0.000, 19:03:38.006
206, 11219.26, -17947.60, -9231.20, -11225.98, -9809.13, -14924.46, 142111.14, 147885.48, 0.000, 0.000, 0.000, 19:03:38.006
207, 11216.57, -17963.87, -9180.06, -11153.70, -9791.61, -14849.58, 142069.83, 147808.97, 0.000, 0.000, 0.000, 19:03:38.006
208, 11374.06, -17961.17, -9125.81, -11161.16, -9795.74, -14849.96, 142075.19, 147816.31, 0.000, 0.000, 0.000, 19:03:38.006
209, 11466.85, -17942.62, -9139.78, -11236.15, -9757.12, -14922.02, 142119.52, 147895.92, 0.000, 0.000, 0.000, 19:03:38.006
210, 11368.70, -17935.06, -9209.03, -11272.21, -9805.02, -14959.75, 142144.86, 147940.11, 0.000, 0.000, 0.000, 19:03:38.440
211, 11216.15, -17949.17, -9243.36, -11224.62, -9807.77, -14914.74, 142119.89, 147891.61, -0.098, 0.980, 0.024, 19:03:38.441
212, 11212.93, -17964.97, -9191.93, -11156.38, -9803.41, -14844.91, 142078.14, 147814.30, 0.000, 0.000, 0.000, 19:03:38.441
213, 11370.02, -17960.50, -9129.44, -11172.68, -9798.94, -14853.61, 142081.25, 147818.89, 0.000, 0.000, 0.000, 19:03:38.441
214, 11455.72, -17942.84, -9154.07, -11253.92, -9750.39, -14929.06, 142126.16, 147898.78, 0.000, 0.000, 0.000, 19:03:38.441
215, 11356.43, -17936.65, -9233.33, -11293.15, -9803.41, -14972.36, 142153.53, 147945.44, 0.000, 0.000, 0.000, 19:03:38.441
216, 11204.39, -17949.54, -9273.20, -11248.09, -9812.13, -14933.31, 142128.09, 147896.97, 0.000, 0.000, 0.000, 19:03:38.441
217, 11189.98, -17966.71, -9229.75, -11185.17, -9780.70, -14870.97, 142086.91, 147820.28, 0.000, 0.000, 0.000, 19:03:38.441
218, 11344.87, -17962.96, -9162.34, -11193.73, -9775.83, -14874.08, 142089.20, 147823.56, 0.000, 0.000, 0.000, 19:03:38.442
219, 11437.83, -17945.90, -9175.82, -11270.80, -9764.94, -14947.26, 142134.69, 147903.97, 0.000, 0.000, 0.000, 19:03:38.442
220, 11350.98, -17939.06, -9242.38, -11305.47, -9819.14, -14984.07, 142162.45, 147951.27, 0.000, 0.000, 0.000, 19:03:38.442
221, 11202.76, -17951.02, -9263.61, -11245.68, -9817.27, -14930.05, 142137.00, 147903.08, -0.098, 0.972, 0.020, 19:03:38.442
222, 11198.78, -17967.87, -9204.47, -11167.36, -9800.14, -14852.51, 142096.00, 147826.36, 0.000, 0.000, 0.000, 19:03:38.442
223, 11362.78, -17963.89, -9139.34, -11173.50, -9798.54, -14854.88, 142098.48, 147829.50, 0.000, 0.000, 0.000, 19:03:38.442
224, 11459.14, -17943.96, -9160.66, -11248.45, -9756.45, -14926.81, 142141.27, 147907.13, 0.000, 0.000, 0.000, 19:03:38.442
225, 11375.76, -17937.07, -9228.36, -11277.71, -9805.84, -14958.95, 142169.67, 147955.38, 0.000, 0.000, 0.000, 19:03:38.442
226, 11223.68, -17952.12, -9256.62, -11225.51, -9807.45, -14911.63, 142147.88, 147910.97, 0.000, 0.000, 0.000, 19:03:38.443
227, 11209.69, -17969.35, -9201.97, -11155.69, -9793.91, -14842.76, 142106.75, 147834.08, 0.000, 0.000, 0.000, 19:03:38.443
228, 11372.32, -17963.29, -9129.08, -11160.96, -9802.80, -14843.75, 142106.50, 147834.13, 0.000, 0.000, 0.000, 19:03:38.443
229, 11465.66, -17944.43, -9148.12, -11240.89, -9754.79, -14916.59, 142150.25, 147912.58, 0.000, 0.000, 0.000, 19:03:38.443
230, 11379.03, -17935.73, -9217.50, -11278.51, -9800.59, -14950.59, 142177.08, 147959.64, -0.098, 0.980, 0.024, 19:03:38.443
231, 11222.68, -17948.92, -9252.10, -11236.18, -9803.74, -14908.75, 142153.38, 147913.73, 0.000, 0.000, 0.000, 19:03:38.443
232, 11199.54, -17966.78, -9210.75, -11176.81, -9785.06, -14849.02, 142112.19, 147836.48, 0.000, 0.000, 0.000, 19:03:38.443
233, 11354.08, -17963.27, -9143.67, -11181.37, -9780.47, -14853.34, 142112.92, 147837.09, 0.000, 0.000, 0.000, 19:03:38.443
234, 11453.66, -17944.58, -9153.78, -11252.40, -9753.41, -14921.93, 142156.42, 147915.08, 0.000, 0.000, 0.000, 19:03:38.444
235, 11365.62, -17937.86, -9221.59, -11289.75, -9800.84, -14961.79, 142185.55, 147964.70, 0.000, 0.000, 0.000, 19:03:38.444
236, 11216.22, -17950.44, -9253.69, -11239.42, -9802.98, -14917.55, 142161.88, 147918.98, 0.000, 0.000, 0.000, 19:03:38.444
237, 11207.21, -17966.49, -9199.44, -11164.45, -9796.68, -14839.90, 142119.20, 147840.11, 0.000, 0.000, 0.000, 19:03:38.444
238, 11366.35, -17963.58, -9134.69, -11171.31, -9803.34, -14843.37, 142120.41, 147840.61, 0.000, 0.000, 0.000, 19:03:38.444
239, 11464.70, -17944.96, -9154.47, -11248.85, -9757.32, -14919.68, 142163.77, 147918.09, 0.000, 0.000, 0.000, 19:03:38.444
240, 11381.46, -17937.61, -9222.24, -11288.17, -9805.11, -14956.60, 142193.25, 147968.16, -0.102, 0.978, 0.026, 19:03:38.444
241, 11232.49, -17950.15, -9253.26, -11241.41, -9805.58, -14909.98, 142170.56, 147923.80, 0.000, 0.000, 0.000, 19:03:38.444
242, 11218.45, -17967.79, -9197.23, -11165.68, -9796.52, -14831.66, 142129.66, 147846.61, 0.000, 0.000, 0.000, 19:03:38.445
243, 11373.89, -17962.80, -9126.17, -11171.33, -9814.29, -14823.83, 142128.66, 147844.48, 0.000, 0.000, 0.000, 19:03:38.445
244, 11467.99, -17943.11, -9148.75, -11253.57, -9756.27, -14897.77, 142171.23, 147921.36, 0.000, 0.000, 0.000, 19:03:38.445
245, 11379.70, -17934.28, -9224.94, -11296.59, -9795.90, -14938.52, 142199.58, 147970.75, 0.000, 0.000, 0.000, 19:03:38.445
246, 11228.62, -17946.73, -9258.07, -11245.45, -9797.60, -14891.78, 142177.14, 147926.95, 0.000, 0.000, 0.000, 19:03:38.445
247, 11220.53, -17963.43, -9209.97, -11164.90, -9801.93, -14819.14, 142135.00, 147848.47, 0.000, 0.000, 0.000, 19:03:38.445
248, 11376.99, -17959.34, -9150.16, -11167.62, -9808.88, -14827.16, 142134.14, 147846.14, 0.000, 0.000, 0.000, 19:03:38.445
249, 11478.94, -17940.92, -9176.15, -11245.83, -9751.64, -14913.26, 142177.63, 147923.73, 0.000, 0.000, 0.000, 19:03:38.445
250, 11391.88, -17932.94, -9260.37, -11294.56, -9807.63, -14969.19, 142206.98, 147974.48, -0.098, 0.978, 0.024, 19:03:38.446
251, 11233.72, -17943.73, -9303.80, -11256.14, -9820.98, -14938.50, 142183.00, 147929.56, 0.000, 0.000, 0.000, 19:03:38.446
252, 11212.06, -17961.37, -9265.40, -11190.85, -9774.24, -14875.00, 142140.95, 147851.22, 0.000, 0.000, 0.000, 19:03:38.446
253, 11356.45, -17957.97, -9209.86, -11204.93, -9750.70, -14882.30, 142138.03, 147846.61, 0.000, 0.000, 0.000, 19:03:38.446
254, 11450.31, -17942.21, -9232.32, -11287.25, -9762.44, -14959.15, 142182.81, 147925.42, 0.000, 0.000, 0.000, 19:03:38.446
255, 11368.39, -17933.94, -9297.43, -11323.10, -9816.44, -14994.94, 142212.81, 147977.02, 0.000, 0.000, 0.000, 19:03:38.447
0, 11222.14, -17947.76, -9321.04, -11267.45, -9815.79, -14940.00, 142192.94, 147936.53, 0.000, 0.000, 0.000, 19:03:38.447
1, 11203.01, -17963.85, -9270.47, -11192.39, -9787.22, -14859.86, 142149.47, 147856.66, 0.000, 0.000, 0.000, 19:03:38.447
2, 11363.07, -17959.98, -9199.67, -11189.42, -9788.10, -14850.81, 142146.72, 147851.80, 0.000, 0.000, 0.000, 19:03:38.447
3, 11475.41, -17943.58, -9208.85, -11258.28, -9752.16, -14915.18, 142191.59, 147930.52, 0.000, 0.000, 0.000, 19:03:38.447
4, 11397.11, -17936.58, -9273.43, -11290.33, -9796.90, -14950.86, 142223.27, 147984.17, -0.098, 0.988, 0.028, 19:03:38.447
5, 11250.66, -17949.10, -9308.29, -11238.28, -9801.37, -14904.30, 142202.52, 147943.00, 0.000, 0.000, 0.000, 19:03:38.447
6, 11233.65, -17965.01, -9264.33, -11162.84, -9799.05, -14823.16, 142158.91, 147862.66, 0.000, 0.000, 0.000, 19:03:38.447
7, 11388.91, -17961.06, -9194.03, -11161.23, -9815.68, -14808.70, 142155.84, 147856.92, 0.000, 0.000, 0.000, 19:03:38.448
8, 11490.72, -17942.06, -9208.49, -11236.47, -9746.05, -14877.16, 142198.28, 147933.19, 0.000, 0.000, 0.000, 19:03:38.448
9, 11409.20, -17933.25, -9280.29, -11279.05, -9786.71, -14918.11, 142228.66, 147985.70, 0.000, 0.000, 0.000, 19:03:38.448
10, 11253.37, -17944.14, -9319.43, -11237.43, -9799.38, -14880.20, 142206.58, 147943.69, 0.000, 0.000, 0.000, 19:03:38.448
11, 11232.38, -17962.22, -9268.96, -11158.86, -9784.92, -14804.97, 142164.72, 147865.13, 0.000, 0.000, 0.000, 19:03:38.448
12, 11385.53, -17959.22, -9200.94, -11158.08, -9795.85, -14806.35, 142161.47, 147858.95, 0.000, 0.000, 0.000, 19:03:38.449
13, 11489.44, -17942.77, -9217.23, -11233.09, -9753.14, -14887.31, 142205.66, 147936.83, 0.000, 0.000, 0.000, 19:03:38.449
14, 11408.42, -17936.16, -9293.83, -11276.95, -9803.83, -14944.29, 142238.70, 147992.27, -0.098, 0.984, 0.028, 19:03:38.449
15, 11252.18, -17948.38, -9339.83, -11239.35, -9815.63, -14917.78, 142218.33, 147952.30, 0.000, 0.000, 0.000, 19:03:38.449
16, 11217.65, -17964.14, -9306.08, -11172.99, -9778.69, -14859.77, 142173.58, 147870.84, 0.000, 0.000, 0.000, 19:03:38.449
17, 11360.97, -17962.35, -9249.35, -11182.67, -9774.57, -14869.03, 142169.94, 147863.89, 0.000, 0.000, 0.000, 19:03:38.449
18, 11463.16, -17946.75, -9271.06, -11264.29, -9765.68, -14950.39, 142214.33, 147941.77, 0.000, 0.000, 0.000, 19:03:38.449
19, 11379.41, -17939.33, -9348.75, -11310.43, -9822.61, -15002.22, 142246.83, 147997.06, 0.000, 0.000, 0.000, 19:03:38.450
20, 11223.75, -17949.95, -9383.91, -11266.15, -9826.03, -14960.83, 142225.78, 147956.78, 0.000, 0.000, 0.000, 19:03:38.450
21, 11197.29, -17967.45, -9334.47, -11188.79, -9798.54, -14882.48, 142182.80, 147876.98, 0.000, 0.000, 0.000, 19:03:38.451
22, 11357.43, -17967.29, -9259.03, -11180.97, -9809.26, -14865.12, 142181.34, 147871.63, 0.000, 0.000, 0.000, 19:03:38.451
23, 11473.02, -17947.96, -9262.45, -11247.60, -9757.77, -14925.47, 142222.56, 147946.19, -0.108, 0.984, 0.028, 19:03:38.452
24, 11400.57, -17936.98, -9326.33, -11286.45, -9797.48, -14961.07, 142252.39, 147999.14, 0.000, 0.000, 0.000, 19:03:38.452
25, 11253.95, -17949.21, -9361.96, -11241.14, -9810.92, -14914.63, 142233.67, 147961.45, 0.000, 0.000, 0.000, 19:03:38.452
26, 11230.95, -17966.64, -9319.63, -11168.27, -9789.13, -14836.06, 142190.89, 147881.66, 0.000, 0.000, 0.000, 19:03:38.453
27, 11387.10, -17964.45, -9247.83, -11164.23, -9796.43, -14820.30, 142186.39, 147872.94, 0.000, 0.000, 0.000, 19:03:38.453
28, 11503.64, -17945.43, -9251.92, -11235.17, -9751.24, -14883.11, 142227.70, 147947.39, 0.000, 0.000, 0.000, 19:03:38.454
29, 11429.81, -17934.32, -9314.98, -11278.62, -9791.79, -14922.92, 142257.84, 148000.97, 0.000, 0.000, 0.000, 19:03:38.454
30, 11278.58, -17945.34, -9347.61, -11232.44, -9798.54, -14878.01, 142238.45, 147962.75, 0.000, 0.000, 0.000, 19:03:38.454
31, 11246.08, -17962.40, -9305.43, -11160.65, -9794.18, -14807.58, 142195.22, 147882.47, 0.000, 0.000, 0.000, 19:03:38.454
32, 11392.15, -17961.12, -9236.48, -11160.38, -9809.71, -14806.06, 142191.31, 147874.13, 0.000, 0.000, 0.000, 19:03:38.455
33, 11499.37, -17943.44, -9250.13, -11239.42, -9761.32, -14887.18, 142233.89, 147949.72, -0.106, 0.978, 0.026, 19:03:38.455
34, 11422.21, -17932.22, -9319.29, -11283.03, -9805.87, -14941.85, 142264.36, 148003.66, 0.000, 0.000, 0.000, 19:03:38.455
35, 11264.14, -17945.01, -9360.69, -11242.84, -9818.94, -14915.09, 142246.97, 147967.84, 0.000, 0.000, 0.000, 19:03:38.456
36, 11235.86, -17961.79, -9321.62, -11170.19, -9776.52, -14852.82, 142202.89, 147886.58, 0.000, 0.000, 0.000, 19:03:38.456
37, 11382.36, -17962.13, -9254.72, -11165.84, -9757.45, -14853.40, 142198.22, 147876.92, 0.000, 0.000, 0.000, 19:03:38.456
38, 11497.96, -17945.34, -9263.72, -11239.04, -9758.37, -14928.15, 142240.31, 147952.03, 0.000, 0.000, 0.000, 19:03:38.456
39, 11424.71, -17937.21, -9341.91, -11291.05, -9815.79, -14987.67, 142274.17, 148009.64, 0.000, 0.000, 0.000, 19:03:38.456
40, 11269.68, -17947.71, -9384.83, -11244.67, -9820.48, -14956.27, 142255.39, 147972.75, 0.000, 0.000, 0.000, 19:03:38.456
41, 11236.56, -17965.57, -9343.50, -11169.59, -9780.81, -14880.92, 142212.64, 147892.88, 0.000, 0.000, 0.000, 19:03:38.457
42, 11378.29, -17963.98, -9272.75, -11166.46, -9787.81, -14867.98, 142206.16, 147880.95, 0.000, 0.000, 0.000, 19:03:38.457
43, 11485.00, -17945.92, -9278.99, -11241.27, -9757.18, -14931.21, 142247.48, 147955.02, -0.104, 0.976, 0.030, 19:03:38.457
44, 11411.41, -17933.85, -9336.08, -11282.31, -9798.16, -14967.67, 142278.22, 148009.98, 0.000, 0.000, 0.000, 19:03:38.457
45, 11257.88, -17946.42, -9358.83, -11238.12, -9805.80, -14924.21, 142261.97, 147976.03, 0.000, 0.000, 0.000, 19:03:38.457
46, 11228.98, -17965.82, -9299.44, -11161.61, -9791.83, -14843.59, 142220.69, 147897.48, 0.000, 0.000, 0.000, 19:03:38.457
47, 11382.92, -17965.30, -9205.61, -11149.30, -9830.48, -14819.32, 142216.02, 147886.77, 0.000, 0.000, 0.000, 19:03:38.457
48, 11509.14, -17945.63, -9184.58, -11208.57, -9751.98, -14868.71, 142256.91, 147960.27, 0.000, 0.000, 0.000, 19:03:38.457
49, 11441.05, -17934.57, -9241.71, -11252.58, -9768.85, -14906.31, 142289.59, 148017.38, 0.000, 0.000, 0.000, 19:03:38.458
50, 11285.69, -17944.38, -9272.31, -11208.89, -9774.98, -14862.10, 142271.28, 147981.80, 0.000, 0.000, 0.000, 19:03:38.458
51, 11248.83, -17961.97, -9224.12, -11135.01, -9803.12, -14783.80, 142228.45, 147901.75, 0.000, 0.000, 0.000, 19:03:38.458
52, 11395.88, -17959.04, -9147.09, -11129.74, -9847.66, -14768.92, 142221.48, 147888.45, 0.000, 0.000, 0.000, 19:03:38.458
53, 11504.33, -17941.01, -9159.77, -11207.48, -9761.61, -14844.46, 142263.39, 147962.91, -0.106, 0.976, 0.030, 19:03:38.458
54, 11432.00, -17930.03, -9230.64, -11256.38, -9776.05, -14899.81, 142296.14, 148020.20, 0.000, 0.000, 0.000, 19:03:38.458
55, 11276.68, -17940.54, -9273.60, -11220.06, -9790.64, -14877.48, 142278.91, 147985.94, 0.000, 0.000, 0.000, 19:03:38.458
56, 11239.60, -17958.20, -9233.93, -11149.21, -9777.99, -14819.34, 142235.41, 147905.20, 0.000, 0.000, 0.000, 19:03:38.458
57, 11380.93, -17958.11, -9160.68, -11142.10, -9792.14, -14821.37, 142228.80, 147892.08, 0.000, 0.000, 0.000, 19:03:38.459
58, 11497.18, -17940.20, -9169.11, -11219.03, -9757.07, -14904.84, 142269.36, 147965.06, 0.000, 0.000, 0.000, 19:03:38.459
59, 11425.65, -17929.54, -9248.17, -11276.46, -9815.37, -14968.90, 142302.75, 148023.55, 0.000, 0.000, 0.000, 19:03:38.459
60, 11265.77, -17937.92, -9295.62, -11245.07, -9830.92, -14940.62, 142283.95, 147988.17, 0.000, 0.000, 0.000, 19:03:38.459
61, 11219.12, -17956.81, -9266.76, -11181.84, -9780.54, -14872.83, 142241.22, 147908.27, 0.000, 0.000, 0.000, 19:03:38.459
62, 11352.14, -17959.69, -9207.62, -11184.01, -9742.50, -14864.16, 142235.19, 147895.34, 0.000, 0.000, 0.000, 19:03:38.459
63, 11465.13, -17941.97, -9217.50, -11265.68, -9754.48, -14933.18, 142274.66, 147966.95, -0.104, 0.976, 0.026, 19:03:38.459
64, 11392.24, -17932.33, -9291.46, -11328.49, -9824.51, -14986.55, 142309.63, 148027.33, 0.000, 0.000, 0.000, 19:03:38.459
65, 11227.10, -17941.43, -9336.39, -11296.19, -9841.67, -14954.03, 142292.16, 147993.73, 0.000, 0.000, 0.000, 19:03:38.459
66, 11181.19, -17960.45, -9294.17, -11219.41, -9785.82, -14872.29, 142249.84, 147913.92, 0.000, 0.000, 0.000, 19:03:38.460
67, 11313.78, -17963.54, -9219.16, -11207.72, -9764.20, -14852.29, 142244.13, 147900.64, 0.000, 0.000, 0.000, 19:03:38.460
68, 11435.89, -17946.33, -9213.10, -11269.46, -9754.08, -14908.84, 142284.81, 147973.14, 0.000, 0.000, 0.000, 19:03:38.460
69, 11380.77, -17936.63, -9268.84, -11308.31, -9799.34, -14947.91, 142320.56, 148034.33, 0.000, 0.000, 0.000, 19:03:38.460
70, 11230.32, -17946.19, -9302.04, -11265.19, -9809.22, -14913.84, 142304.48, 148002.25, 0.000, 0.000, 0.000, 19:03:38.460
71, 11189.66, -17962.91, -9257.18, -11184.75, -9783.72, -14843.48, 142259.95, 147920.23, 0.000, 0.000, 0.000, 19:03:38.460
72, 11341.01, -17963.22, -9172.64, -11162.26, -9798.94, -14823.74, 142251.92, 147904.39, -0.104, 0.978, 0.026, 19:03:38.460
73, 11466.98, -17947.91, -9165.15, -11224.55, -9754.37, -14889.30, 142294.63, 147978.73, 0.000, 0.000, 0.000, 19:03:38.460
74, 11406.77, -17934.28, -9229.62, -11271.96, -9794.02, -14938.54, 142326.38, 148036.41, 0.000, 0.000, 0.000, 19:03:38.921
75, 11251.89, -17942.62, -9274.74, -11236.89, -9809.20, -14908.86, 142309.16, 148003.66, 0.000, 0.000, 0.000, 19:03:38.921
76, 11206.34, -17960.65, -9242.04, -11161.39, -9784.39, -14838.16, 142265.70, 147922.77, 0.000, 0.000, 0.000, 19:03:38.922
77, 11352.52, -17961.84, -9172.64, -11147.08, -9803.18, -14821.73, 142257.61, 147906.47, 0.000, 0.000, 0.000, 19:03:38.922
78, 11479.57, -17943.49, -9177.07, -11219.79, -9753.92, -14888.74, 142296.97, 147977.66, 0.000, 0.000, 0.000, 19:03:38.922
79, 11414.77, -17930.99, -9255.23, -11279.61, -9791.54, -14945.69, 142330.27, 148037.34, 0.000, 0.000, 0.000, 19:03:38.923
80, 11260.85, -17942.33, -9302.39, -11245.52, -9806.74, -14912.21, 142317.03, 148008.80, 0.000, 0.000, 0.000, 19:03:38.923
81, 11216.19, -17962.26, -9272.11, -11175.94, -9780.25, -14839.34, 142275.39, 147929.58, 0.000, 0.000, 0.000, 19:03:38.923
82, 11350.13, -17963.11, -9209.83, -11171.58, -9790.40, -14828.79, 142265.63, 147911.23, -0.100, 0.978, 0.022, 19:03:38.923
83, 11461.66, -17946.86, -9224.14, -11250.73, -9760.87, -14903.96, 142306.11, 147983.05, 0.000, 0.000, 0.000, 19:03:38.923
84, 11389.93, -17937.25, -9303.44, -11312.42, -9822.07, -14966.75, 142342.45, 148045.70, 0.000, 0.000, 0.000, 19:03:38.923
85, 11221.69, -17945.28, -9353.78, -11282.60, -9843.98, -14940.51, 142325.72, 148014.05, 0.000, 0.000, 0.000, 19:03:38.923
86, 11160.27, -17964.59, -9323.74, -11216.17, -9791.90, -14869.99, 142282.69, 147933.52, 0.000, 0.000, 0.000, 19:03:38.923
87, 11284.14, -17968.59, -9255.28, -11210.27, -9759.80, -14853.23, 142274.55, 147916.33, 0.000, 0.000, 0.000, 19:03:38.949
88, 11409.98, -17950.37, -9249.53, -11274.87, -9760.87, -14911.67, 142312.56, 147985.48, 0.000, 0.000, 0.000, 19:03:38.949
89, 11361.17, -17938.44, -9310.78, -11320.29, -9817.65, -14959.71, 142347.53, 148046.95, 0.000, 0.000, 0.000, 19:03:38.949
90, 11204.35, -17947.36, -9352.55, -11285.15, -9830.61, -14927.21, 142332.86, 148017.78, 0.000, 0.000, 0.000, 19:03:38.949
91, 11152.11, -17966.35, -9314.69, -11206.92, -9789.33, -14850.34, 142290.13, 147937.55, 0.000, 0.000, 0.000, 19:03:38.949
92, 11290.16, -17968.05, -9236.32, -11187.74, -9788.66, -14830.34, 142280.20, 147918.16, -0.100, 0.976, 0.020, 19:03:38.949
93, 11425.07, -17951.36, -9227.60, -11247.87, -9760.74, -14895.05, 142320.02, 147989.00, 0.000, 0.000, 0.000, 19:03:38.949
94, 11381.13, -17938.93, -9284.62, -11292.57, -9808.12, -14951.55, 142354.92, 148050.86, 0.000, 0.000, 0.000, 19:03:38.950
95, 11234.72, -17947.31, -9322.38, -11253.14, -9829.98, -14929.22, 142340.47, 148022.23, 0.000, 0.000, 0.000, 19:03:38.950
96, 11185.04, -17966.78, -9283.84, -11173.82, -9790.94, -14859.35, 142298.16, 147942.30, 0.000, 0.000, 0.000, 19:03:38.950
97, 11321.74, -17968.75, -9207.00, -11157.52, -9789.82, -14838.70, 142287.59, 147921.92, 0.000, 0.000, 0.000, 19:03:38.950
98, 11458.20, -17952.76, -9199.62, -11223.17, -9758.32, -14896.77, 142328.06, 147993.23, 0.000, 0.000, 0.000, 19:03:38.950
99, 11410.14, -17940.83, -9266.94, -11278.49, -9799.50, -14948.42, 142364.05, 148056.45, 0.000, 0.000, 0.000, 19:03:38.950
100, 11250.28, -17948.70, -9316.30, -11254.46, -9822.07, -14921.98, 142349.53, 148028.06, 0.000, 0.000, 0.000, 19:03:38.950
101, 11196.84, -17965.75, -9278.97, -11179.94, -9797.08, -14841.60, 142304.92, 147945.81, 0.000, 0.000, 0.000, 19:03:38.950
102, 11337.54, -17966.24, -9203.62, -11161.25, -9807.50, -14815.70, 142293.06, 147923.64, -0.096, 0.980, 0.030, 19:03:38.950
103, 11461.44, -17951.69, -9207.87, -11238.43, -9756.85, -14878.68, 142334.70, 147996.06, 0.000, 0.000, 0.000, 19:03:38.950
104, 11408.75, -17939.82, -9273.38, -11293.69, -9789.82, -14922.09, 142371.31, 148060.03, 0.000, 0.000, 0.000, 19:03:38.951
105, 11254.42, -17948.81, -9320.01, -11267.22, -9808.15, -14889.52, 142358.64, 148033.83, 0.000, 0.000, 0.000, 19:03:38.951
106, 11192.14, -17966.76, -9294.44, -11201.93, -9795.58, -14821.11, 142314.69, 147952.30, 0.000, 0.000, 0.000, 19:03:38.951
107, 11328.45, -17967.63, -9219.69, -11185.80, -9817.49, -14794.82, 142302.67, 147929.61, 0.000, 0.000, 0.000, 19:03:38.951
108, 11458.11, -17951.11, -9220.36, -11258.17, -9762.24, -14860.51, 142342.14, 147999.41, 0.000, 0.000, 0.000, 19:03:38.951
109, 11399.25, -17939.42, -9295.29, -11322.21, -9801.84, -14924.64, 142378.91, 148063.73, 0.000, 0.000, 0.000, 19:03:38.952
110, 11235.17, -17948.83, -9346.63, -11296.73, -9825.92, -14907.47, 142366.84, 148038.69, 0.000, 0.000, 0.000, 19:03:38.952
111, 11170.66, -17967.14, -9315.74, -11224.75, -9794.38, -14843.32, 142322.98, 147957.45, 0.000, 0.000, 0.000, 19:03:38.952
112, 11301.91, -17968.72, -9242.65, -11207.21, -9789.50, -14827.70, 142310.22, 147933.86, -0.102, 0.982, 0.022, 19:03:38.952
113, 11434.95, -17951.56, -9238.13, -11273.39, -9755.22, -14897.46, 142348.48, 148002.19, 0.000, 0.000, 0.000, 19:03:38.952
114, 11385.67, -17939.46, -9304.87, -11325.72, -9809.44, -14957.25, 142385.50, 148067.20, 0.000, 0.000, 0.000, 19:03:38.952
115, 11230.43, -17948.18, -9344.91, -11282.45, -9829.16, -14930.74, 142373.75, 148042.66, 0.000, 0.000, 0.000, 19:03:38.952
116, 11173.95, -17967.03, -9310.42, -11199.54, -9791.58, -14862.72, 142330.61, 147962.03, 0.000, 0.000, 0.000, 19:03:38.952
117, 11307.37, -17971.27, -9234.94, -11179.05, -9791.05, -14841.69, 142319.55, 147939.70, 0.000, 0.000, 0.000, 19:03:38.953
118, 11453.66, -17953.39, -9220.21, -11236.15, -9754.73, -14898.78, 142356.80, 148007.14, 0.000, 0.000, 0.000, 19:03:38.953
119, 11413.07, -17938.08, -9277.43, -11283.54, -9789.44, -14949.58, 142391.22, 148069.70, 0.000, 0.000, 0.000, 19:03:38.953
120, 11256.61, -17946.95, -9321.19, -11252.02, -9807.07, -14923.72, 142380.00, 148046.03, 0.000, 0.000, 0.000, 19:03:38.953
121, 11199.88, -17967.36, -9281.45, -11173.48, -9803.94, -14842.94, 142338.83, 147967.16, -0.106, 0.980, 0.022, 19:03:38.953
122, 11335.49, -17968.28, -9201.81, -11153.74, -9845.92, -14812.95, 142325.28, 147941.78, 0.000, 0.000, 0.000, 19:03:38.953
123, 11466.87, -17949.28, -9201.27, -11224.20, -9765.90, -14874.46, 142361.50, 148007.84, 0.000, 0.000, 0.000, 19:03:38.953
124, 11419.80, -17936.85, -9274.63, -11284.59, -9779.20, -14932.13, 142398.69, 148073.55, 0.000, 0.000, 0.000, 19:03:38.954
125, 11258.91, -17946.48, -9324.95, -11260.81, -9802.25, -14909.64, 142388.61, 148051.38, 0.000, 0.000, 0.000, 19:03:38.954
126, 11194.22, -17964.61, -9289.09, -11187.79, -9798.47, -14829.60, 142344.86, 147970.02, 0.000, 0.000, 0.000, 19:03:38.954
127, 11325.32, -17967.16, -9212.50, -11171.13, -9853.95, -14799.16, 142332.13, 147945.25, 0.000, 0.000, 0.000, 19:03:38.954
128, 11453.28, -17948.54, -9210.84, -11243.44, -9764.52, -14858.32, 142368.72, 148011.41, 0.000, 0.000, 0.000, 19:03:38.954
129, 11402.32, -17936.58, -9283.60, -11305.22, -9773.88, -14910.09, 142406.92, 148078.20, 0.000, 0.000, 0.000, 19:03:38.954
130, 11244.63, -17945.34, -9336.48, -11280.39, -9792.79, -14879.69, 142396.44, 148056.03, 0.000, 0.000, 0.000, 19:03:38.954
131, 11180.99, -17964.43, -9308.07, -11208.55, -9792.21, -14805.55, 142353.47, 147975.31, -0.110, 0.980, 0.026, 19:03:38.954
132, 11314.50, -17966.85, -9232.77, -11189.64, -9851.46, -14782.37, 142339.97, 147949.19, 0.000, 0.000, 0.000, 19:03:38.954
133, 11455.92, -17948.81, -9222.75, -11249.48, -9767.18, -14841.33, 142376.92, 148015.39, 0.000, 0.000, 0.000, 19:03:38.955
134, 11411.66, -17935.29, -9287.64, -11304.75, -9767.35, -14900.75, 142414.00, 148081.38, 0.000, 0.000, 0.000, 19:03:38.955
135, 11251.02, -17942.68, -9336.35, -11277.57, -9785.88, -14883.15, 142402.98, 148058.98, 0.000, 0.000, 0.000, 19:03:38.955
136, 11183.54, -17963.58, -9312.00, -11204.08, -9794.18, -14820.23, 142362.06, 147980.53, 0.000, 0.000, 0.000, 19:03:38.955
137, 11316.24, -17966.35, -9239.29, -11182.06, -9857.43, -14802.58, 142348.48, 147954.17, 0.000, 0.000, 0.000, 19:03:38.955
138, 11453.55, -17948.52, -9240.23, -11249.05, -9776.34, -14875.49, 142385.06, 148019.70, 0.000, 0.000, 0.000, 19:03:38.955
139, 11403.99, -17935.80, -9316.23, -11309.51, -9792.77, -14949.54, 142423.03, 148086.72, 0.000, 0.000, 0.000, 19:03:38.955
140, 11245.41, -17943.58, -9364.58, -11282.85, -9823.57, -14936.55, 142412.97, 148065.70, 0.000, 0.000, 0.000, 19:03:38.955
141, 11179.69, -17962.53, -9329.08, -11202.07, -9791.45, -14865.88, 142369.75, 147985.00, -0.102, 0.980, 0.026, 19:03:38.956
142, 11303.97, -17967.31, -9249.35, -11174.69, -9800.14, -14838.32, 142356.05, 147957.91, 0.000, 0.000, 0.000, 19:03:38.956
143, 11444.96, -17950.89, -9238.00, -11238.77, -9757.68, -14893.77, 142392.61, 148023.31, 0.000, 0.000, 0.000, 19:03:38.956
144, 11408.17, -17936.78, -9302.37, -11299.41, -9788.72, -14951.75, 142429.64, 148089.67, 0.000, 0.000, 0.000, 19:03:38.956
145, 11254.24, -17944.92, -9348.13, -11268.72, -9809.89, -14926.27, 142420.80, 148070.22, 0.000, 0.000, 0.000, 19:03:38.956
146, 11190.51, -17963.25, -9314.20, -11188.52, -9793.89, -14851.08, 142377.19, 147989.16, 0.000, 0.000, 0.000, 19:03:38.956
147, 11322.88, -17965.84, -9232.75, -11159.69, -9832.15, -14819.30, 142361.55, 147959.89, 0.000, 0.000, 0.000, 19:03:38.956
148, 11464.41, -17950.53, -9221.93, -11226.43, -9759.49, -14877.97, 142399.56, 148026.50, 0.000, 0.000, 0.000, 19:03:38.956
149, 11424.74, -17938.17, -9285.34, -11289.49, -9773.10, -14936.08, 142438.81, 148095.14, 0.000, 0.000, 0.000, 19:03:38.956
150, 11268.68, -17946.35, -9331.18, -11264.88, -9794.29, -14911.74, 142430.42, 148076.41, 0.000, 0.000, 0.000, 19:03:38.956
151, 11199.21, -17965.15, -9295.75, -11188.10, -9808.37, -14833.15, 142387.77, 147996.22, -0.096, 0.978, 0.028, 19:03:38.957
152, 11325.81, -17967.47, -9215.71, -11167.74, -9871.63, -14797.39, 142372.16, 147966.63, 0.000, 0.000, 0.000, 19:03:38.957
153, 11463.11, -17947.27, -9208.27, -11235.69, -9770.37, -14855.06, 142405.91, 148028.88, 0.000, 0.000, 0.000, 19:03:38.957
154, 11415.06, -17935.62, -9275.26, -11297.78, -9749.88, -14916.62, 142446.23, 148098.86, 0.000, 0.000, 0.000, 19:03:38.957
155, 11251.33, -17944.63, -9325.95, -11276.21, -9774.48, -14900.61, 142439.50, 148082.06, 0.000, 0.000, 0.000, 19:03:38.958
156, 11181.46, -17964.19, -9300.45, -11201.00, -9798.47, -14832.77, 142397.28, 148002.45, 0.000, 0.000, 0.000, 19:03:38.958
157, 11307.66, -17966.35, -9232.21, -11178.49, -9843.39, -14815.99, 142379.95, 147970.80, 0.000, 0.000, 0.000, 19:03:38.958
158, 11438.79, -17947.91, -9235.29, -11250.39, -9763.96, -14891.36, 142413.64, 148032.69, 0.000, 0.000, 0.000, 19:03:38.958
159, 11401.02, -17935.26, -9304.90, -11310.67, -9783.31, -14958.82, 142453.20, 148102.14, 0.000, 0.000, 0.000, 19:03:38.958
160, 11252.05, -17942.28, -9349.98, -11282.85, -9807.81, -14939.19, 142444.89, 148084.42, 0.000, 0.000, 0.000, 19:03:38.958
161, 11178.84, -17959.78, -9317.28, -11206.34, -9782.60, -14866.03, 142400.52, 148002.55, -0.104, 0.980, 0.028, 19:03:38.959
162, 11300.71, -17964.79, -9240.10, -11179.87, -9809.64, -14837.13, 142384.63, 147971.84, 0.000, 0.000, 0.000, 19:03:38.959
163, 11446.42, -17947.82, -9230.00, -11243.31, -9752.58, -14897.01, 142419.14, 148034.06, 0.000, 0.000, 0.000, 19:03:38.959
164, 11410.12, -17933.77, -9295.67, -11308.95, -9788.25, -14960.94, 142457.31, 148102.11, 0.000, 0.000, 0.000, 19:03:38.959
165, 11253.95, -17941.19, -9347.45, -11292.48, -9822.16, -14947.19, 142449.78, 148085.33, 0.000, 0.000, 0.000, 19:03:38.960
166, 11185.08, -17960.50, -9317.68, -11213.78, -9792.61, -14870.37, 142407.25, 148005.17, 0.000, 0.000, 0.000, 19:03:38.960
167, 11309.74, -17965.79, -9238.78, -11180.54, -9806.56, -14831.97, 142390.95, 147973.64, 0.000, 0.000, 0.000, 19:03:38.960
168, 11455.83, -17950.10, -9226.33, -11242.19, -9755.49, -14887.69, 142426.56, 148036.73, 0.000, 0.000, 0.000, 19:03:38.960
169, 11430.17, -17936.63, -9281.63, -11297.85, -9775.78, -14942.10, 142466.44, 148106.91, 0.000, 0.000, 0.000, 19:03:38.960
170, 11276.37, -17943.69, -9323.69, -11274.55, -9802.02, -14920.21, 142459.70, 148091.39, -0.106, 0.974, 0.030, 19:03:38.960
171, 11199.41, -17962.67, -9290.97, -11197.02, -9797.57, -14837.74, 142417.23, 148011.66, 0.000, 0.000, 0.000, 19:03:38.960
172, 11323.57, -17964.37, -9213.23, -11169.43, -9858.10, -14800.36, 142397.89, 147976.80, 0.000, 0.000, 0.000, 19:03:38.960
173, 11465.08, -17948.32, -9206.01, -11239.60, -9769.70, -14860.42, 142433.41, 148039.75, 0.000, 0.000, 0.000, 19:03:38.960
174, 11424.29, -17935.62, -9273.92, -11306.45, -9764.74, -14922.87, 142474.17, 148111.13, 0.000, 0.000, 0.000, 19:03:38.961
175, 11264.34, -17942.44, -9326.78, -11286.76, -9787.14, -14905.51, 142467.72, 148096.34, 0.000, 0.000, 0.000, 19:03:38.961
176, 11188.10, -17961.28, -9301.99, -11212.35, -9795.52, -14835.59, 142425.00, 148016.36, 0.000, 0.000, 0.000, 19:03:38.961
177, 11312.73, -17965.15, -9229.04, -11185.35, -9862.35, -14810.58, 142407.41, 147982.77, 0.000, 0.000, 0.000, 19:03:38.961
178, 11454.22, -17949.37, -9230.40, -11253.72, -9776.72, -14882.80, 142442.70, 148045.28, 0.000, 0.000, 0.000, 19:03:38.961
179, 11415.64, -17936.38, -9306.60, -11322.30, -9785.10, -14961.72, 142483.11, 148116.36, 0.000, 0.000, 0.000, 19:03:38.961
180, 11254.46, -17941.43, -9365.00, -11303.03, -9818.65, -14956.98, 142474.89, 148100.27, -0.102, 0.982, 0.028, 19:03:38.961
181, 11174.29, -17959.71, -9344.35, -11226.48, -9787.02, -14891.42, 142431.34, 148019.39, 0.000, 0.000, 0.000, 19:03:38.962
182, 11287.43, -17965.30, -9274.83, -11196.41, -9790.35, -14863.48, 142413.08, 147984.64, 0.000, 0.000, 0.000, 19:03:38.962
183, 11433.95, -17949.05, -9264.78, -11259.40, -9756.22, -14924.01, 142446.13, 148044.45, 0.000, 0.000, 0.000, 19:03:38.962
184, 11402.76, -17937.21, -9333.84, -11326.66, -9802.69, -14993.77, 142487.88, 148117.00, 0.000, 0.000, 0.000, 19:03:38.962
185, 11258.60, -17945.75, -9379.02, -11300.01, -9826.50, -14971.00, 142484.45, 148105.97, 0.000, 0.000, 0.000, 19:03:38.963
186, 11184.79, -17964.61, -9349.04, -11220.98, -9789.64, -14890.31, 142441.67, 148025.94, 0.000, 0.000, 0.000, 19:03:38.963
187, 11300.15, -17968.61, -9270.74, -11188.77, -9802.94, -14850.05, 142421.27, 147988.80, 0.000, 0.000, 0.000, 19:03:38.963
188, 11449.43, -17954.57, -9252.44, -11247.73, -9764.27, -14898.40, 142456.80, 148051.00, 0.000, 0.000, 0.000, 19:03:38.963
189, 11422.75, -17942.21, -9313.88, -11308.69, -9790.31, -14957.83, 142499.00, 148124.17, 0.000, 0.000, 0.000, 19:03:38.963
190, 11266.58, -17947.42, -9363.48, -11288.82, -9817.20, -14937.47, 142492.72, 148110.75, -0.098, 0.978, 0.024, 19:03:38.964
191, 11182.38, -17964.86, -9337.46, -11216.80, -9796.10, -14858.21, 142448.84, 148029.86, 0.000, 0.000, 0.000, 19:03:38.964
192, 11296.86, -17970.38, -9256.24, -11182.33, -9843.28, -14811.09, 142430.36, 147994.58, 0.000, 0.000, 0.000, 19:03:38.964
193, 11450.60, -17950.84, -9233.19, -11237.32, -9773.43, -14855.17, 142460.92, 148051.72, 0.000, 0.000, 0.000, 19:03:38.964
194, 11428.07, -17935.24, -9290.84, -11295.03, -9763.51, -14915.39, 142500.39, 148122.41, 0.000, 0.000, 0.000, 19:03:39.402
195, 11274.17, -17942.95, -9340.28, -11272.25, -9793.57, -14905.82, 142497.34, 148112.67, 0.000, 0.000, 0.000, 19:03:39.403
196, 11188.52, -17961.48, -9321.50, -11201.58, -9787.83, -14841.13, 142454.66, 148033.14, 0.000, 0.000, 0.000, 19:03:39.403
197, 11303.59, -17965.93, -9251.68, -11171.38, -9840.89, -14814.98, 142434.39, 147995.59, 0.000, 0.000, 0.000, 19:03:39.403
198, 11454.06, -17951.60, -9242.60, -11231.59, -9765.81, -14882.04, 142469.36, 148056.70, 0.000, 0.000, 0.000, 19:03:39.404
199, 11423.73, -17938.08, -9308.94, -11297.51, -9770.64, -14957.07, 142510.92, 148129.77, 0.000, 0.000, 0.000, 19:03:39.404
200, 11267.11, -17944.07, -9366.43, -11283.76, -9804.86, -14955.37, 142506.53, 148119.02, -0.100, 0.980, 0.028, 19:03:39.405
