%OpenBCI Raw EEG Data
%
%Sample Rate = 250.0 Hz
%First Column = SampleIndex
%Last Column = Timestamp 
%Other Columns = EEG data in microvolts followed by Accel Data (in G) interleaved with Aux Data
0, 0.00, 0.00, 0.00, 0.00, 0.00, 0.00, 0.00, 0.00, 0.064, 0.980, -0.020, 18:03:17.554
1, -28741.62, -32338.97, -28297.96, -29348.15, -28661.73, -36377.62, 114329.26, -29023.11, 0.000, 0.000, 0.000, 18:03:18.032
2, -28667.94, -32548.47, -28328.13, -29304.30, -28695.50, -36390.70, 114322.64, -29499.74, 0.000, 0.000, 0.000, 18:03:18.032
3, -28954.70, -33069.72, -28248.78, -29203.49, -28702.88, -36414.57, 114293.27, -30333.69, 0.000, 0.000, 0.000, 18:03:18.033
4, -28960.42, -33190.80, -28173.86, -29187.18, -28704.06, -36421.18, 114286.45, -30416.48, 0.000, 0.000, 0.000, 18:03:18.034
5, -28795.57, -32756.79, -28206.43, -29277.86, -28710.44, -36405.74, 114313.68, -29506.22, 0.000, 0.000, 0.000, 18:03:18.034
6, -28773.15, -32372.30, -28278.13, -29337.27, -28673.62, -36394.29, 114339.12, -29041.06, 0.000, 0.000, 0.000, 18:03:18.035
7, -28687.41, -32564.35, -28307.46, -29305.42, -28741.88, -36408.22, 114332.12, -29505.71, 0.072, 0.980, -0.022, 18:03:18.035
8, -28963.03, -33075.08, -28241.12, -29217.66, -28704.76, -36430.84, 114302.62, -30322.98, 0.000, 0.000, 0.000, 18:03:18.036
9, -28972.73, -33193.61, -28183.80, -29214.58, -28713.92, -36437.50, 114295.73, -30403.67, 0.000, 0.000, 0.000, 18:03:18.037
10, -28821.23, -32751.05, -28223.03, -29295.11, -28731.29, -36422.70, 114323.45, -29493.42, 0.000, 0.000, 0.000, 18:03:18.038
11, -28821.79, -32347.98, -28295.09, -29339.35, -28690.63, -36411.26, 114349.46, -29040.48, 0.000, 0.000, 0.000, 18:03:18.039
12, -28726.71, -32517.09, -28317.98, -29292.23, -28746.11, -36420.49, 114339.25, -29522.03, 0.000, 0.000, 0.000, 18:03:18.040
13, -28984.94, -33014.22, -28253.48, -29204.43, -28727.94, -36445.50, 114311.87, -30358.99, 0.000, 0.000, 0.000, 18:03:18.040
14, -28992.42, -33125.75, -28178.75, -29184.61, -28730.02, -36452.61, 114304.60, -30462.77, 0.000, 0.000, 0.000, 18:03:18.041
15, -28834.46, -32673.35, -28205.69, -29260.38, -28753.75, -36435.71, 114328.92, -29565.01, 0.000, 0.000, 0.000, 18:03:18.042
16, -28815.64, -32265.95, -28291.09, -29312.75, -28714.39, -36425.39, 114354.54, -29085.03, 0.000, 0.000, 0.000, 18:03:18.042
17, -28725.92, -32433.16, -28312.28, -29266.61, -28756.39, -36437.72, 114347.14, -29530.95, 0.044, 0.984, -0.026, 18:03:18.043
18, -28992.04, -32927.65, -28236.11, -29066.74, -28724.36, -36459.47, 114316.18, -30387.20, 0.000, 0.000, 0.000, 18:03:18.044
19, -28981.40, -32999.42, -28155.73, -28459.74, -28723.49, -36461.59, 114306.23, -30482.12, 0.000, 0.000, 0.000, 18:03:18.045
20, -28830.89, -32448.12, -28182.62, -28347.24, -28757.57, -36439.51, 114332.77, -29521.11, 0.000, 0.000, 0.000, 18:03:18.046
21, -28818.71, -31921.80, -28261.32, -28421.63, -28688.80, -36417.54, 114358.88, -29005.43, 0.000, 0.000, 0.000, 18:03:18.046
22, -28714.70, -31980.00, -28295.79, -28402.65, -28735.65, -36421.81, 114350.98, -29451.37, 0.000, 0.000, 0.000, 18:03:18.048
23, -28817.66, -32386.09, -28241.76, -28321.13, -28725.61, -36437.14, 114320.32, -30208.96, 0.000, 0.000, 0.000, 18:03:18.053
24, -28807.82, -32415.53, -28179.34, -28309.29, -28731.42, -36434.93, 114310.77, -30227.65, 0.000, 0.000, 0.000, 18:03:18.053
25, -28777.89, -31869.14, -28210.74, -28400.77, -28730.10, -36411.86, 114337.17, -29290.84, 0.000, 0.000, 0.000, 18:03:18.055
26, -28722.08, -31350.87, -28291.92, -28464.92, -28695.26, -36392.48, 114361.96, -28861.18, 0.000, 0.000, 0.000, 18:03:18.055
27, -28696.11, -31426.17, -28322.32, -28428.80, -28692.75, -36386.94, 114349.91, -29359.80, 0.020, 0.994, -0.030, 18:03:18.056
28, -28772.06, -31862.12, -28261.63, -28344.56, -28737.41, -36402.18, 114319.78, -30131.80, 0.000, 0.000, 0.000, 18:03:18.058
29, -28760.57, -31914.47, -28199.79, -28334.68, -28735.31, -36400.71, 114310.95, -30157.11, 0.000, 0.000, 0.000, 18:03:18.058
30, -28748.28, -31395.91, -28229.67, -28419.66, -28710.21, -36383.14, 114338.49, -29237.58, 0.000, 0.000, 0.000, 18:03:18.059
31, -28695.64, -30891.18, -28300.01, -28479.07, -28734.11, -36366.24, 114363.34, -28817.07, 0.000, 0.000, 0.000, 18:03:18.059
32, -28661.24, -30962.89, -28328.04, -28441.12, -28698.70, -36364.48, 114355.77, -29323.43, 0.000, 0.000, 0.000, 18:03:18.060
33, -28742.49, -31398.90, -28256.94, -28345.50, -28726.26, -36375.54, 114325.37, -30104.65, 0.000, 0.000, 0.000, 18:03:18.060
34, -28737.50, -31446.60, -28183.87, -28327.10, -28720.47, -36372.50, 114313.21, -30147.67, 0.000, 0.000, 0.000, 18:03:18.061
35, -28727.76, -30916.31, -28210.70, -28401.27, -28715.67, -36359.29, 114341.15, -29240.60, 0.000, 0.000, 0.000, 18:03:18.062
36, -28663.63, -30379.62, -28280.48, -28455.76, -28761.82, -36343.85, 114368.27, -28809.95, 0.000, 0.000, 0.000, 18:03:18.062
37, -28628.94, -30430.47, -28316.17, -28428.94, -28710.19, -36340.85, 114358.12, -29324.08, 0.012, 0.992, -0.024, 18:03:18.063
38, -28728.74, -30868.63, -28264.23, -28337.74, -28676.35, -36348.94, 114325.46, -30152.88, 0.000, 0.000, 0.000, 18:03:18.063
39, -28730.02, -30924.89, -28189.39, -28314.61, -28661.35, -36349.34, 114316.16, -30241.04, 0.000, 0.000, 0.000, 18:03:18.064
40, -28715.11, -30404.43, -28211.16, -28395.70, -28683.17, -36338.55, 114342.53, -29335.12, 0.000, 0.000, 0.000, 18:03:18.065
41, -28678.40, -29879.68, -28284.79, -28459.42, -28725.39, -36324.78, 114370.20, -28864.95, 0.000, 0.000, 0.000, 18:03:18.065
42, -28651.90, -29937.95, -28320.82, -28431.91, -28673.31, -36322.21, 114361.53, -29334.96, 0.000, 0.000, 0.000, 18:03:18.066
43, -28751.79, -30378.50, -28262.86, -28348.34, -28669.06, -36332.89, 114331.25, -30134.78, 0.000, 0.000, 0.000, 18:03:18.066
44, -28736.99, -30437.93, -28188.48, -28329.90, -28680.73, -36334.95, 114322.95, -30202.44, 0.000, 0.000, 0.000, 18:03:18.067
45, -28699.77, -29935.73, -28222.05, -28417.72, -28682.54, -36322.01, 114349.80, -29288.07, 0.000, 0.000, 0.000, 18:03:18.068
46, -28663.47, -29424.55, -28290.98, -28473.30, -28725.46, -36302.41, 114373.11, -28809.52, 0.000, 0.000, 0.000, 18:03:18.068
47, -28594.38, -29481.37, -28323.88, -28440.56, -28674.47, -36300.17, 114365.29, -29279.73, 0.012, 0.990, -0.022, 18:03:18.069
48, -28708.38, -29937.68, -28268.16, -28348.09, -28607.57, -36311.44, 114337.84, -30078.90, 0.000, 0.000, 0.000, 18:03:18.070
49, -28715.84, -30036.07, -28193.24, -28324.89, -28611.55, -36314.41, 114328.41, -30166.99, 0.000, 0.000, 0.000, 18:03:18.071
50, -28670.56, -29544.98, -28216.26, -28415.10, -28689.71, -36304.73, 114355.16, -29256.49, 0.000, 0.000, 0.000, 18:03:18.071
51, -28639.78, -29025.86, -28294.33, -28486.76, -28745.33, -36286.22, 114380.73, -28776.48, 0.000, 0.000, 0.000, 18:03:18.071
52, -28583.83, -29077.74, -28338.01, -28465.37, -28701.40, -36283.43, 114371.62, -29258.68, 0.000, 0.000, 0.000, 18:03:18.072
53, -28694.59, -29530.99, -28283.67, -28381.51, -28605.36, -36293.51, 114340.88, -30065.71, 0.000, 0.000, 0.000, 18:03:18.072
54, -28709.56, -29630.63, -28211.83, -28360.47, -28599.46, -36297.80, 114332.70, -30170.09, 0.000, 0.000, 0.000, 18:03:18.073
55, -28663.63, -29133.93, -28234.39, -28443.09, -28706.19, -36287.77, 114359.73, -29257.99, 0.000, 0.000, 0.000, 18:03:18.073
56, -28624.71, -28601.96, -28310.03, -28515.82, -28769.38, -36269.75, 114386.12, -28760.82, 0.032, 0.998, -0.024, 18:03:18.074
57, -28555.60, -28634.35, -28349.43, -28482.09, -28721.90, -36268.16, 114378.48, -29234.65, 0.000, 0.000, 0.000, 18:03:18.074
58, -28654.33, -29068.80, -28283.85, -28373.39, -28615.08, -36279.61, 114348.16, -30039.02, 0.000, 0.000, 0.000, 18:03:18.074
59, -28673.64, -29161.92, -28209.98, -28352.11, -28605.54, -36284.17, 114339.14, -30154.71, 0.000, 0.000, 0.000, 18:03:18.075
60, -28638.08, -28626.37, -28221.31, -28429.27, -28694.03, -36270.55, 114364.02, -29252.00, 0.000, 0.000, 0.000, 18:03:18.075
61, -28572.66, -28121.00, -28288.63, -28489.29, -28744.12, -36249.43, 114389.30, -28741.41, 0.000, 0.000, 0.000, 18:03:18.075
62, -28565.73, -28733.79, -28318.92, -28453.19, -28688.42, -36246.95, 114383.62, -29180.92, 0.000, 0.000, 0.000, 18:03:18.076
63, -28616.11, -29508.50, -28265.95, -28366.98, -28591.81, -36257.23, 114352.73, -29979.95, 0.000, 0.000, 0.000, 18:03:18.076
64, -28627.49, -29613.69, -28190.22, -28341.36, -28576.86, -36260.74, 114342.85, -30100.47, 0.000, 0.000, 0.000, 18:03:18.076
65, -28606.52, -29110.67, -28203.90, -28423.35, -28661.04, -36249.10, 114369.63, -29200.97, 0.000, 0.000, 0.000, 18:03:18.103
66, -28562.11, -28573.60, -28283.88, -28495.43, -28728.38, -36231.30, 114396.52, -28710.64, 0.032, 1.000, -0.020, 18:03:18.103
67, -28522.72, -28600.67, -28327.17, -28477.89, -28684.93, -36228.93, 114388.40, -29174.14, 0.000, 0.000, 0.000, 18:03:18.104
68, -28612.82, -29038.58, -28263.02, -28375.29, -28572.99, -36239.35, 114357.60, -29972.71, 0.000, 0.000, 0.000, 18:03:18.104
69, -28631.42, -29146.27, -28185.68, -28347.53, -28560.59, -36244.52, 114348.81, -30095.13, 0.000, 0.000, 0.000, 18:03:18.104
70, -28591.59, -28632.85, -28213.18, -28437.01, -28662.02, -36230.61, 114372.27, -29192.70, 0.000, 0.000, 0.000, 18:03:18.104
71, -28530.97, -28095.94, -28276.99, -28499.52, -28711.96, -36210.63, 114399.29, -28659.21, 0.000, 0.000, 0.000, 18:03:18.105
72, -28526.05, -28665.26, -28294.51, -28456.88, -28649.39, -36209.29, 114395.87, -29100.92, 0.000, 0.000, 0.000, 18:03:18.106
73, -28575.61, -29466.55, -28252.58, -28375.70, -28567.36, -36221.13, 114365.89, -29904.08, 0.000, 0.000, 0.000, 18:03:18.106
74, -28592.93, -29595.18, -28180.50, -28349.01, -28556.41, -36222.77, 114353.11, -30033.12, 0.000, 0.000, 0.000, 18:03:18.106
75, -28578.36, -29108.88, -28196.46, -28425.85, -28645.35, -36209.45, 114378.66, -29150.16, 0.000, 0.000, 0.000, 18:03:18.106
76, -28529.90, -28572.66, -28265.72, -28491.23, -28696.44, -36191.81, 114406.62, -28666.20, 0.042, 0.992, -0.012, 18:03:18.106
77, -28487.99, -28597.07, -28304.33, -28468.83, -28657.42, -36190.54, 114399.63, -29141.35, 0.000, 0.000, 0.000, 18:03:18.106
78, -28588.04, -29042.69, -28259.47, -28383.34, -28573.46, -36203.14, 114368.15, -29960.46, 0.000, 0.000, 0.000, 18:03:18.107
79, -28608.15, -29153.85, -28176.05, -28352.23, -28555.04, -36207.48, 114357.40, -30100.58, 0.000, 0.000, 0.000, 18:03:18.107
80, -28558.76, -28645.82, -28193.08, -28433.25, -28643.25, -36194.60, 114383.33, -29201.64, 0.000, 0.000, 0.000, 18:03:18.107
81, -28509.67, -28087.74, -28259.89, -28498.18, -28694.56, -36174.11, 114409.81, -28661.06, 0.000, 0.000, 0.000, 18:03:18.107
82, -28493.67, -28625.14, -28293.64, -28465.26, -28647.16, -36168.83, 114402.55, -29093.41, 0.000, 0.000, 0.000, 18:03:18.107
83, -28542.10, -29421.80, -28249.59, -28382.89, -28554.96, -36182.64, 114373.73, -29895.37, 0.000, 0.000, 0.000, 18:03:18.108
84, -28563.16, -29551.62, -28188.32, -28367.85, -28553.53, -36187.85, 114363.08, -30043.56, 0.000, 0.000, 0.000, 18:03:18.108
85, -28542.55, -29058.96, -28200.41, -28443.29, -28643.25, -36173.48, 114388.05, -29155.32, 0.000, 0.000, 0.000, 18:03:18.108
86, -28502.99, -28509.63, -28271.07, -28516.56, -28703.48, -36154.95, 114415.73, -28632.65, 0.046, 0.984, -0.014, 18:03:18.108
87, -28465.19, -28512.09, -28309.76, -28494.03, -28648.92, -36152.67, 114409.55, -29075.19, 0.000, 0.000, 0.000, 18:03:18.109
88, -28545.77, -28934.15, -28250.53, -28390.00, -28545.52, -36164.09, 114378.23, -29869.22, 0.000, 0.000, 0.000, 18:03:18.109
89, -28563.58, -29043.05, -28178.53, -28371.04, -28541.77, -36167.74, 114366.50, -30008.36, 0.000, 0.000, 0.000, 18:03:18.109
90, -28509.80, -28523.04, -28196.19, -28450.89, -28634.53, -36153.03, 114391.55, -29115.54, 0.000, 0.000, 0.000, 18:03:18.109
91, -28443.87, -27985.54, -28257.88, -28510.68, -28688.40, -36132.91, 114419.88, -28571.59, 0.000, 0.000, 0.000, 18:03:18.110
92, -28441.83, -28557.28, -28289.84, -28482.87, -28643.07, -36127.48, 114413.57, -28997.05, 0.000, 0.000, 0.000, 18:03:18.110
93, -28485.22, -29365.77, -28243.24, -28389.22, -28559.25, -36143.46, 114386.91, -29795.61, 0.000, 0.000, 0.000, 18:03:18.110
94, -28510.86, -29494.87, -28164.52, -28351.78, -28548.41, -36147.38, 114375.02, -29940.90, 0.000, 0.000, 0.000, 18:03:18.110
95, -28513.70, -28998.91, -28186.38, -28433.47, -28646.67, -36131.91, 114399.33, -29059.72, 0.000, 0.000, 0.000, 18:03:18.111
96, -28453.95, -28438.73, -28262.10, -28499.12, -28707.80, -36112.59, 114427.23, -28544.90, 0.038, 0.986, -0.012, 18:03:18.111
97, -28407.08, -28432.11, -28297.49, -28471.09, -28660.99, -36110.20, 114421.68, -29004.76, 0.000, 0.000, 0.000, 18:03:18.111
98, -28493.91, -28859.21, -28253.25, -28392.64, -28570.65, -36123.03, 114390.73, -29814.23, 0.000, 0.000, 0.000, 18:03:18.112
99, -28518.19, -28967.21, -28177.66, -28363.29, -28553.97, -36129.67, 114381.20, -29966.78, 0.000, 0.000, 0.000, 18:03:18.112
100, -28468.95, -28437.14, -28195.74, -28443.62, -28641.23, -36115.21, 114406.48, -29091.60, 0.000, 0.000, 0.000, 18:03:18.112
101, -28395.88, -27906.91, -28260.36, -28501.71, -28685.83, -36093.64, 114434.20, -28533.83, 0.000, 0.000, 0.000, 18:03:18.113
102, -28403.57, -28471.92, -28291.70, -28478.96, -28621.83, -36086.24, 114427.77, -28938.51, 0.000, 0.000, 0.000, 18:03:18.113
103, -28436.69, -29293.61, -28253.63, -28403.66, -28534.48, -36098.42, 114398.68, -29712.11, 0.000, 0.000, 0.000, 18:03:18.113
104, -28455.04, -29422.43, -28189.37, -28383.56, -28533.70, -36102.34, 114387.13, -29847.20, 0.000, 0.000, 0.000, 18:03:18.114
105, -28448.76, -28912.70, -28216.71, -28464.79, -28639.36, -36089.08, 114414.58, -28968.78, 0.034, 0.986, -0.016, 18:03:18.114
106, -28377.93, -28328.76, -28292.93, -28533.28, -28707.30, -36068.09, 114442.73, -28451.94, 0.000, 0.000, 0.000, 18:03:18.114
107, -28372.14, -28298.07, -28331.64, -28512.15, -28667.47, -36062.88, 114436.39, -28898.61, 0.000, 0.000, 0.000, 18:03:18.115
108, -28426.81, -28703.28, -28280.74, -28425.52, -28574.09, -36076.77, 114408.52, -29685.53, 0.000, 0.000, 0.000, 18:03:18.115
109, -28454.08, -28809.25, -28206.49, -28397.26, -28562.89, -36082.04, 114398.10, -29826.41, 0.000, 0.000, 0.000, 18:03:18.115
110, -28422.05, -28250.95, -28213.69, -28470.11, -28649.68, -36065.25, 114422.89, -28938.31, 0.000, 0.000, 0.000, 18:03:18.115
111, -28288.61, -27780.56, -28269.61, -28529.30, -28700.80, -36042.28, 114452.46, -28375.67, 0.000, 0.000, 0.000, 18:03:18.116
112, -28301.93, -28370.89, -28302.65, -28505.89, -28659.34, -36033.58, 114447.03, -28809.77, 0.000, 0.000, 0.000, 18:03:18.116
113, -28324.26, -29189.72, -28265.86, -28428.00, -28573.89, -36045.79, 114419.20, -29604.39, 0.000, 0.000, 0.000, 18:03:18.117
114, -28358.44, -29314.45, -28194.87, -28400.66, -28553.12, -36052.78, 114410.46, -29753.10, 0.000, 0.000, 0.000, 18:03:18.117
115, -28393.91, -28801.16, -28218.03, -28487.41, -28650.64, -36034.79, 114433.17, -28883.04, 0.034, 0.984, -0.026, 18:03:18.118
116, -28295.34, -28168.79, -28299.14, -28559.18, -28723.38, -36013.29, 114461.73, -28360.79, 0.000, 0.000, 0.000, 18:03:18.119
117, -28296.50, -28221.29, -28325.96, -28527.37, -28672.39, -36007.83, 114457.69, -28801.81, 0.000, 0.000, 0.000, 18:03:18.119
118, -28318.77, -29051.99, -28282.67, -28447.15, -28590.65, -36020.71, 114429.41, -29599.34, 0.000, 0.000, 0.000, 18:03:18.119
119, -28358.66, -29225.51, -28214.70, -28418.25, -28587.93, -36025.56, 114417.21, -29772.54, 0.000, 0.000, 0.000, 18:03:18.120
120, -28368.10, -28730.64, -28217.76, -28489.67, -28673.13, -36010.34, 114442.02, -28910.21, 0.000, 0.000, 0.000, 18:03:18.120
121, -28286.56, -28105.08, -28284.25, -28557.86, -28735.78, -35989.79, 114470.88, -28382.33, 0.000, 0.000, 0.000, 18:03:18.511
122, -28295.34, -28256.94, -28313.80, -28527.33, -28685.60, -35984.79, 114466.61, -28806.44, 0.000, 0.000, 0.000, 18:03:18.511
123, -28320.91, -29088.76, -28266.73, -28438.30, -28590.25, -35996.68, 114436.97, -29600.84, 0.000, 0.000, 0.000, 18:03:18.512
124, -28354.93, -29263.60, -28197.48, -28411.79, -28582.43, -36000.90, 114423.45, -29789.04, 0.000, 0.000, 0.000, 18:03:18.512
125, -28359.24, -28792.26, -28211.03, -28489.29, -28668.68, -35986.44, 114447.39, -28941.75, 0.040, 0.994, -0.028, 18:03:18.512
126, -28303.43, -28234.07, -28288.68, -28562.49, -28741.37, -35966.88, 114475.48, -28405.13, 0.000, 0.000, 0.000, 18:03:18.512
127, -28260.14, -28217.85, -28328.80, -28542.15, -28690.05, -35964.94, 114471.73, -28855.50, 0.000, 0.000, 0.000, 18:03:18.513
128, -28346.41, -28658.85, -28275.60, -28450.84, -28581.55, -35979.02, 114441.51, -29690.42, 0.000, 0.000, 0.000, 18:03:18.513
129, -28390.51, -28820.61, -28200.39, -28418.50, -28562.98, -35984.09, 114427.09, -29918.84, 0.000, 0.000, 0.000, 18:03:18.513
130, -28341.83, -28352.00, -28213.24, -28491.61, -28653.30, -35970.68, 114450.67, -29068.35, 0.000, 0.000, 0.000, 18:03:18.514
131, -28301.11, -27813.66, -28279.94, -28553.88, -28714.86, -35951.42, 114478.86, -28474.09, 0.000, 0.000, 0.000, 18:03:18.514
132, -28267.49, -28365.57, -28305.22, -28515.17, -28656.32, -35945.71, 114473.52, -28864.86, 0.000, 0.000, 0.000, 18:03:18.514
133, -28327.59, -29204.47, -28251.96, -28422.90, -28558.87, -35957.23, 114440.80, -29691.30, 0.000, 0.000, 0.000, 18:03:18.515
134, -28371.31, -29399.88, -28177.39, -28395.54, -28550.66, -35964.67, 114427.72, -29932.54, 0.000, 0.000, 0.000, 18:03:18.515
135, -28331.26, -28963.32, -28192.03, -28474.02, -28649.86, -35952.63, 114451.63, -29078.77, 0.034, 1.000, -0.030, 18:03:18.515
136, -28318.54, -28431.13, -28264.72, -28547.51, -28712.51, -35931.86, 114476.51, -28474.36, 0.000, 0.000, 0.000, 18:03:18.516
137, -28248.69, -28440.72, -28304.15, -28524.13, -28662.74, -35931.57, 114473.36, -28854.83, 0.000, 0.000, 0.000, 18:03:18.516
138, -28360.79, -28902.88, -28256.09, -28434.26, -28570.09, -35946.34, 114442.88, -29673.86, 0.000, 0.000, 0.000, 18:03:18.516
139, -28404.22, -29080.45, -28175.18, -28397.71, -28549.86, -35951.93, 114427.98, -29914.03, 0.000, 0.000, 0.000, 18:03:18.517
140, -28306.94, -28651.72, -28188.01, -28475.50, -28644.34, -35938.41, 114449.94, -29071.50, 0.000, 0.000, 0.000, 18:03:18.517
141, -28307.25, -28122.90, -28262.89, -28544.12, -28707.28, -35921.15, 114478.57, -28470.11, 0.000, 0.000, 0.000, 18:03:18.517
142, -28204.62, -28119.48, -28300.50, -28515.28, -28660.66, -35917.38, 114472.84, -28842.56, 0.000, 0.000, 0.000, 18:03:18.518
143, -28321.18, -28570.63, -28252.76, -28422.12, -28566.24, -35933.76, 114444.05, -29654.28, 0.000, 0.000, 0.000, 18:03:18.518
144, -28367.04, -28741.62, -28175.31, -28382.47, -28544.54, -35939.21, 114429.10, -29893.94, 0.000, 0.000, 0.000, 18:03:18.518
145, -28277.44, -28270.06, -28196.08, -28467.07, -28643.40, -35924.39, 114450.38, -29047.48, 0.040, 0.996, -0.014, 18:03:18.518
146, -28238.84, -27731.38, -28258.68, -28529.70, -28700.27, -35905.30, 114479.88, -28421.38, 0.000, 0.000, 0.000, 18:03:18.519
147, -28224.42, -28278.35, -28285.06, -28494.40, -28643.89, -35898.31, 114475.20, -28762.60, 0.000, 0.000, 0.000, 18:03:18.519
148, -28264.32, -29130.60, -28244.91, -28414.14, -28547.69, -35910.58, 114445.04, -29549.09, 0.000, 0.000, 0.000, 18:03:18.519
149, -28299.99, -29320.23, -28176.41, -28383.83, -28531.78, -35917.69, 114431.92, -29780.10, 0.000, 0.000, 0.000, 18:03:18.519
150, -28267.42, -28869.69, -28194.58, -28461.57, -28621.68, -35905.10, 114455.81, -28939.70, 0.000, 0.000, 0.000, 18:03:18.519
151, -28237.40, -28309.42, -28274.58, -28535.89, -28692.87, -35885.64, 114483.98, -28357.39, 0.000, 0.000, 0.000, 18:03:18.520
152, -28204.91, -28268.68, -28313.91, -28512.40, -28644.36, -35881.52, 114479.87, -28740.56, 0.000, 0.000, 0.000, 18:03:18.520
153, -28269.57, -28689.74, -28267.94, -28425.88, -28545.55, -35895.76, 114451.27, -29535.95, 0.000, 0.000, 0.000, 18:03:18.520
154, -28306.96, -28846.74, -28195.85, -28398.31, -28529.23, -35902.87, 114438.09, -29765.15, 0.046, 0.982, -0.008, 18:03:18.521
155, -28238.68, -28369.75, -28207.32, -28473.35, -28615.19, -35890.48, 114462.27, -28923.34, 0.000, 0.000, 0.000, 18:03:18.521
156, -28184.81, -27761.51, -28269.50, -28541.93, -28673.02, -35869.50, 114490.80, -28322.59, 0.000, 0.000, 0.000, 18:03:18.521
157, -28161.14, -28213.40, -28312.04, -28528.98, -28638.31, -35863.17, 114487.66, -28692.46, 0.000, 0.000, 0.000, 18:03:18.522
158, -28185.35, -29052.04, -28268.68, -28434.23, -28531.82, -35873.39, 114456.48, -29479.42, 0.000, 0.000, 0.000, 18:03:18.522
159, -28224.20, -29228.26, -28184.19, -28393.40, -28490.05, -35878.75, 114442.02, -29708.73, 0.000, 0.000, 0.000, 18:03:18.523
160, -28226.41, -28761.69, -28195.70, -28474.18, -28576.91, -35864.25, 114464.24, -28872.28, 0.000, 0.000, 0.000, 18:03:18.523
161, -28167.85, -28173.17, -28267.33, -28543.40, -28637.93, -35844.95, 114493.88, -28287.54, 0.000, 0.000, 0.000, 18:03:18.523
162, -28141.22, -28108.50, -28310.76, -28526.17, -28597.45, -35840.53, 114490.88, -28677.64, 0.000, 0.000, 0.000, 18:03:18.523
163, -28199.88, -28516.85, -28266.02, -28443.42, -28498.72, -35853.20, 114461.16, -29469.19, 0.000, 0.000, 0.000, 18:03:18.524
164, -28245.14, -28672.06, -28190.38, -28411.82, -28474.04, -35860.27, 114447.92, -29700.48, 0.046, 0.978, -0.004, 18:03:18.524
165, -28205.82, -28182.04, -28200.66, -28482.65, -28559.40, -35845.87, 114470.07, -28862.63, 0.000, 0.000, 0.000, 18:03:18.524
166, -28123.59, -27623.96, -28265.10, -28550.49, -28619.44, -35824.91, 114499.58, -28247.40, 0.000, 0.000, 0.000, 18:03:18.524
167, -28106.22, -28137.36, -28299.43, -28525.88, -28581.44, -35817.15, 114496.67, -28617.70, 0.000, 0.000, 0.000, 18:03:18.525
168, -28131.21, -28974.25, -28256.49, -28440.74, -28490.29, -35830.16, 114468.63, -29410.74, 0.000, 0.000, 0.000, 18:03:18.525
169, -28172.18, -29166.77, -28180.05, -28401.11, -28462.29, -35837.49, 114455.10, -29653.52, 0.000, 0.000, 0.000, 18:03:18.525
170, -28184.65, -28720.07, -28194.06, -28475.72, -28555.67, -35822.36, 114475.73, -28830.15, 0.000, 0.000, 0.000, 18:03:18.525
171, -28134.63, -28148.67, -28274.67, -28556.86, -28629.16, -35800.81, 114502.53, -28240.73, 0.000, 0.000, 0.000, 18:03:18.525
172, -28109.02, -28093.39, -28319.93, -28536.49, -28588.19, -35796.23, 114499.45, -28623.67, 0.000, 0.000, 0.000, 18:03:18.526
173, -28176.81, -28522.88, -28281.82, -28452.56, -28493.33, -35810.76, 114471.08, -29427.77, 0.000, 0.000, 0.000, 18:03:18.526
174, -28225.04, -28707.10, -28211.79, -28420.78, -28474.96, -35816.41, 114454.88, -29687.85, 0.042, 0.972, -0.014, 18:03:18.526
175, -28158.77, -28259.02, -28224.93, -28495.81, -28568.08, -35803.78, 114477.14, -28865.60, 0.000, 0.000, 0.000, 18:03:18.526
176, -28116.06, -27667.12, -28293.64, -28566.85, -28641.05, -35784.14, 114506.93, -28242.63, 0.000, 0.000, 0.000, 18:03:18.526
177, -28094.94, -28114.72, -28324.60, -28536.61, -28597.54, -35778.23, 114505.79, -28592.48, 0.000, 0.000, 0.000, 18:03:18.527
178, -28121.00, -28965.24, -28277.55, -28442.84, -28502.54, -35788.98, 114475.41, -29379.56, 0.000, 0.000, 0.000, 18:03:18.527
179, -28162.71, -29178.55, -28204.75, -28407.93, -28485.67, -35795.65, 114460.28, -29644.45, 0.000, 0.000, 0.000, 18:03:18.527
180, -28137.52, -28747.20, -28210.98, -28477.22, -28570.89, -35783.60, 114483.09, -28830.11, 0.000, 0.000, 0.000, 18:03:18.527
181, -28100.28, -28176.79, -28276.77, -28548.54, -28637.21, -35763.01, 114510.98, -28225.54, 0.000, 0.000, 0.000, 18:03:18.528
182, -28077.88, -28111.21, -28311.21, -28523.71, -28596.84, -35757.80, 114508.23, -28596.06, 0.000, 0.000, 0.000, 18:03:18.528
183, -28140.02, -28535.71, -28279.02, -28450.01, -28513.72, -35773.07, 114480.89, -29398.62, 0.000, 0.000, 0.000, 18:03:18.528
184, -28190.76, -28723.31, -28207.10, -28418.19, -28496.93, -35779.40, 114465.05, -29663.98, 0.038, 0.984, -0.006, 18:03:18.528
185, -28132.89, -28276.83, -28208.30, -28482.22, -28579.30, -35765.45, 114486.39, -28841.77, 0.000, 0.000, 0.000, 18:03:18.529
186, -28080.70, -27658.03, -28276.30, -28549.21, -28645.03, -35742.09, 114513.03, -28218.90, 0.000, 0.000, 0.000, 18:03:18.529
187, -28065.43, -28048.62, -28307.32, -28522.72, -28605.52, -35736.44, 114512.72, -28547.92, 0.000, 0.000, 0.000, 18:03:18.529
188, -28090.71, -28909.66, -28264.36, -28436.89, -28514.90, -35748.64, 114484.29, -29327.07, 0.000, 0.000, 0.000, 18:03:18.529
189, -28129.38, -29132.64, -28191.45, -28399.92, -28495.21, -35754.79, 114468.02, -29606.70, 0.000, 0.000, 0.000, 18:03:18.529
190, -28098.09, -28708.54, -28203.12, -28471.43, -28583.32, -35740.82, 114488.60, -28809.43, 0.000, 0.000, 0.000, 18:03:18.530
191, -28070.79, -28142.54, -28283.07, -28548.29, -28662.11, -35723.09, 114519.25, -28206.31, 0.000, 0.000, 0.000, 18:03:18.530
192, -28037.83, -28076.56, -28327.35, -28529.97, -28627.02, -35718.40, 114517.33, -28555.56, 0.000, 0.000, 0.000, 18:03:18.530
193, -28098.62, -28496.39, -28286.45, -28449.50, -28531.15, -35731.70, 114488.67, -29345.56, 0.000, 0.000, 0.000, 18:03:18.530
194, -28153.14, -28691.93, -28218.50, -28413.60, -28516.33, -35738.14, 114472.27, -29639.84, 0.034, 0.988, -0.004, 18:03:18.531
195, -28082.02, -28262.42, -28231.95, -28481.75, -28610.95, -35724.79, 114492.80, -28842.64, 0.000, 0.000, 0.000, 18:03:18.531
196, -28042.83, -27636.63, -28290.27, -28543.85, -28663.47, -35702.38, 114520.19, -28189.66, 0.000, 0.000, 0.000, 18:03:18.531
197, -28024.82, -28003.52, -28324.33, -28522.72, -28618.08, -35694.59, 114518.47, -28520.51, 0.000, 0.000, 0.000, 18:03:18.531
198, -28051.42, -28862.65, -28284.39, -28437.61, -28525.96, -35708.12, 114491.24, -29313.24, 0.000, 0.000, 0.000, 18:03:18.532
199, -28095.61, -29093.68, -28208.26, -28398.00, -28506.52, -35713.59, 114473.54, -29612.37, 0.000, 0.000, 0.000, 18:03:18.532
200, -28069.34, -28674.63, -28217.06, -28469.24, -28598.81, -35699.54, 114493.01, -28814.04, 0.000, 0.000, 0.000, 18:03:18.532
201, -28038.81, -28100.39, -28285.21, -28547.13, -28668.44, -35680.04, 114522.09, -28169.21, 0.000, 0.000, 0.000, 18:03:18.532
202, -27999.11, -28026.72, -28326.90, -28528.83, -28630.66, -35676.56, 114522.04, -28517.99, 0.000, 0.000, 0.000, 18:03:18.532
203, -28056.00, -28445.10, -28277.88, -28428.22, -28527.35, -35690.26, 114493.88, -29314.80, 0.030, 0.980, 0.000, 18:03:18.533
204, -28110.27, -28645.37, -28198.49, -28385.91, -28502.05, -35698.51, 114478.79, -29617.27, 0.000, 0.000, 0.000, 18:03:18.533
205, -28027.43, -28218.09, -28207.39, -28459.63, -28591.90, -35684.60, 114498.15, -28823.60, 0.000, 0.000, 0.000, 18:03:18.533
206, -27994.44, -27597.41, -28275.87, -28533.81, -28662.83, -35666.72, 114529.98, -28167.91, 0.000, 0.000, 0.000, 18:03:18.533
207, -27962.01, -27975.35, -28311.08, -28508.06, -28626.91, -35660.00, 114530.00, -28482.04, 0.000, 0.000, 0.000, 18:03:18.534
208, -27982.68, -28831.11, -28272.05, -28425.41, -28533.97, -35670.05, 114499.47, -29264.27, 0.000, 0.000, 0.000, 18:03:18.534
209, -28034.07, -29059.12, -28187.56, -28379.83, -28499.35, -35675.46, 114481.41, -29567.42, 0.000, 0.000, 0.000, 18:03:18.534
210, -28022.83, -28641.72, -28192.05, -28445.90, -28593.07, -35662.41, 114501.57, -28775.93, 0.000, 0.000, 0.000, 18:03:18.534
211, -27980.90, -28062.19, -28262.51, -28515.59, -28663.79, -35642.98, 114531.23, -28126.12, 0.000, 0.000, 0.000, 18:03:18.534
212, -27942.29, -27974.62, -28306.72, -28500.62, -28627.98, -35639.09, 114531.52, -28457.14, 0.000, 0.000, 0.000, 18:03:18.535
213, -27994.71, -28383.45, -28270.96, -28421.09, -28537.75, -35652.17, 114502.88, -29248.84, 0.040, 0.990, -0.006, 18:03:18.535
214, -28057.63, -28583.99, -28198.58, -28387.14, -28510.10, -35658.65, 114485.25, -29565.10, 0.000, 0.000, 0.000, 18:03:18.535
215, -28006.49, -28152.94, -28204.82, -28458.26, -28600.82, -35645.44, 114505.10, -28779.59, 0.000, 0.000, 0.000, 18:03:18.535
216, -27958.43, -27523.96, -28269.23, -28524.33, -28672.30, -35624.01, 114534.27, -28112.50, 0.000, 0.000, 0.000, 18:03:18.536
217, -27939.61, -27899.27, -28307.72, -28507.93, -28636.29, -35615.96, 114533.93, -28422.61, 0.000, 0.000, 0.000, 18:03:18.536
218, -27958.97, -28768.86, -28272.43, -28423.91, -28545.66, -35627.36, 114505.14, -29208.79, 0.000, 0.000, 0.000, 18:03:18.536
219, -28005.15, -29011.04, -28197.98, -28383.76, -28520.15, -35635.43, 114488.98, -29525.29, 0.000, 0.000, 0.000, 18:03:18.537
220, -27984.76, -28597.45, -28200.53, -28450.73, -28599.19, -35622.38, 114509.05, -28740.59, 0.000, 0.000, 0.000, 18:03:18.537
221, -27949.89, -28015.59, -28263.98, -28522.88, -28663.23, -35602.64, 114539.01, -28081.30, 0.000, 0.000, 0.000, 18:03:18.537
222, -27896.12, -27922.51, -28310.99, -28513.29, -28630.95, -35597.39, 114539.19, -28407.30, 0.000, 0.000, 0.000, 18:03:18.537
223, -27952.87, -28336.80, -28281.55, -28439.93, -28548.74, -35612.74, 114512.92, -29198.42, 0.042, 0.976, -0.008, 18:03:18.538
224, -28021.44, -28551.11, -28206.02, -28393.20, -28519.97, -35620.39, 114495.98, -29517.49, 0.000, 0.000, 0.000, 18:03:18.538
225, -27971.75, -28133.38, -28201.44, -28453.14, -28587.75, -35608.79, 114517.41, -28732.50, 0.000, 0.000, 0.000, 18:03:18.538
226, -27923.72, -27506.23, -28258.59, -28518.52, -28655.00, -35586.32, 114546.00, -28050.14, 0.000, 0.000, 0.000, 18:03:18.538
227, -27902.96, -27866.63, -28295.09, -28500.51, -28618.44, -35576.51, 114544.41, -28341.43, 0.000, 0.000, 0.000, 18:03:18.539
228, -27922.38, -28736.90, -28257.37, -28417.72, -28519.73, -35588.36, 114516.55, -29116.37, 0.000, 0.000, 0.000, 18:03:18.539
229, -27971.87, -28992.92, -28187.31, -28381.64, -28503.95, -35598.30, 114501.48, -29440.09, 0.000, 0.000, 0.000, 18:03:18.539
230, -27929.00, -28594.56, -28195.00, -28453.35, -28593.20, -35587.04, 114522.53, -28669.24, 0.000, 0.000, 0.000, 18:03:18.539
231, -27898.80, -28010.11, -28257.07, -28518.43, -28655.09, -35565.22, 114551.08, -28013.57, 0.000, 0.000, 0.000, 18:03:18.539
232, -27864.96, -27905.86, -28294.96, -28498.34, -28626.46, -35557.94, 114550.32, -28343.89, 0.000, 0.000, 0.000, 18:03:18.540
233, -27910.13, -28312.64, -28259.98, -28419.44, -28539.67, -35571.17, 114522.71, -29135.79, 0.036, 0.988, -0.012, 18:03:18.540
234, -27976.65, -28528.11, -28186.13, -28381.86, -28509.54, -35578.75, 114505.50, -29459.13, 0.000, 0.000, 0.000, 18:03:18.540
235, -27931.34, -28111.50, -28193.08, -28446.37, -28596.84, -35566.54, 114525.66, -28679.21, 0.000, 0.000, 0.000, 18:03:18.540
236, -27881.34, -27471.41, -28259.96, -28520.31, -28669.08, -35545.62, 114556.09, -27994.46, 0.000, 0.000, 0.000, 18:03:18.541
237, -27852.53, -27802.57, -28300.39, -28504.04, -28639.36, -35535.94, 114555.50, -28281.46, 0.000, 0.000, 0.000, 18:03:18.541
238, -27869.94, -28666.85, -28274.33, -28427.48, -28553.32, -35547.18, 114527.20, -29055.72, 0.000, 0.000, 0.000, 18:03:18.541
239, -27922.00, -28923.54, -28199.38, -28384.63, -28512.13, -35555.19, 114510.06, -29389.64, 0.000, 0.000, 0.000, 18:03:18.541
240, -27896.74, -28530.41, -28204.82, -28459.96, -28602.86, -35543.18, 114529.73, -28624.00, 0.000, 0.000, 0.000, 18:03:18.541
241, -27859.28, -27949.27, -28271.98, -28539.18, -28679.90, -35521.50, 114558.30, -27963.84, 0.000, 0.000, 0.000, 18:03:18.991
242, -27803.13, -27842.81, -28315.50, -28527.84, -28644.25, -35515.42, 114559.30, -28286.67, 0.000, 0.000, 0.000, 18:03:18.992
243, -27848.37, -28250.12, -28278.89, -28438.71, -28550.75, -35528.68, 114531.79, -29077.32, 0.032, 0.984, -0.012, 18:03:18.992
244, -27924.95, -28478.38, -28199.23, -28389.62, -28521.58, -35536.68, 114514.30, -29414.60, 0.000, 0.000, 0.000, 18:03:18.992
245, -27888.63, -28080.47, -28194.82, -28451.13, -28607.19, -35527.23, 114536.50, -28650.38, 0.000, 0.000, 0.000, 18:03:18.993
246, -27843.99, -27442.87, -28262.39, -28531.26, -28684.08, -35505.45, 114565.90, -27968.33, 0.000, 0.000, 0.000, 18:03:18.993
247, -27812.21, -27752.69, -28299.81, -28514.92, -28647.07, -35496.29, 114566.66, -28257.19, 0.000, 0.000, 0.000, 18:03:18.994
248, -27828.17, -28634.60, -28265.05, -28432.71, -28551.58, -35507.89, 114539.03, -29040.97, 0.000, 0.000, 0.000, 18:03:18.994
249, -27886.75, -28905.65, -28185.95, -28383.25, -28514.88, -35516.38, 114521.62, -29392.39, 0.000, 0.000, 0.000, 18:03:18.994
250, -27866.61, -28516.36, -28184.48, -28444.87, -28602.45, -35505.70, 114542.05, -28637.17, 0.000, 0.000, 0.000, 18:03:18.995
251, -27834.20, -27939.37, -28263.22, -28534.13, -28693.65, -35484.20, 114570.21, -27963.46, 0.000, 0.000, 0.000, 18:03:18.995
252, -27776.94, -27835.83, -28309.87, -28520.87, -28664.84, -35477.56, 114570.59, -28265.77, 0.032, 0.980, -0.008, 18:03:18.995
253, -27824.99, -28251.38, -28272.05, -28439.06, -28568.68, -35490.75, 114542.83, -29053.27, 0.000, 0.000, 0.000, 18:03:18.996
254, -27903.45, -28490.47, -28188.90, -28384.75, -28539.13, -35498.17, 114523.92, -29407.16, 0.000, 0.000, 0.000, 18:03:18.996
255, -27854.77, -28108.01, -28185.93, -28449.95, -28622.77, -35489.61, 114546.25, -28653.64, 0.000, 0.000, 0.000, 18:03:18.997
0, -27820.23, -27472.26, -28267.47, -28543.45, -28717.05, -35468.66, 114575.89, -27958.54, 0.000, 0.000, 0.000, 18:03:18.997
1, -27773.34, -27711.74, -28306.40, -28521.99, -28685.20, -35457.51, 114574.97, -28223.97, 0.000, 0.000, 0.000, 18:03:18.997
2, -27780.80, -28586.56, -28268.52, -28427.48, -28587.93, -35468.37, 114546.83, -28995.84, 0.000, 0.000, 0.000, 18:03:18.998
3, -27845.89, -28873.78, -28194.11, -28381.86, -28557.79, -35478.74, 114530.63, -29357.92, 0.000, 0.000, 0.000, 18:03:18.998
4, -27817.28, -28499.70, -28190.49, -28448.88, -28636.70, -35466.83, 114549.47, -28609.76, 0.000, 0.000, 0.000, 18:03:18.999
5, -27793.99, -27923.01, -28262.37, -28528.58, -28723.44, -35445.89, 114578.52, -27918.74, 0.000, 0.000, 0.000, 18:03:18.999
6, -27750.12, -27803.63, -28312.44, -28523.42, -28704.69, -35439.56, 114580.05, -28214.03, 0.032, 0.988, -0.010, 18:03:19.000
7, -27795.94, -28210.78, -28286.80, -28453.86, -28612.80, -35452.35, 114552.10, -29004.83, 0.000, 0.000, 0.000, 18:03:19.001
8, -27877.03, -28459.31, -28215.25, -28409.49, -28579.63, -35461.62, 114534.16, -29379.29, 0.000, 0.000, 0.000, 18:03:19.001
9, -27808.27, -28087.74, -28213.49, -28475.41, -28664.05, -35449.06, 114551.45, -28636.21, 0.000, 0.000, 0.000, 18:03:19.001
10, -27781.70, -27444.95, -28282.40, -28558.04, -28742.58, -35427.76, 114580.94, -27917.71, 0.000, 0.000, 0.000, 18:03:19.001
11, -27733.44, -27655.70, -28317.67, -28534.46, -28701.34, -35419.38, 114583.55, -28165.03, 0.000, 0.000, 0.000, 18:03:19.002
12, -27741.33, -28544.21, -28284.77, -28453.50, -28606.90, -35431.47, 114556.91, -28927.85, 0.000, 0.000, 0.000, 18:03:19.002
13, -27812.63, -28838.13, -28201.51, -28408.82, -28563.61, -35439.79, 114538.07, -29297.95, 0.000, 0.000, 0.000, 18:03:19.003
14, -27787.93, -28462.91, -28196.08, -28465.75, -28637.14, -35429.48, 114557.96, -28559.92, 0.000, 0.000, 0.000, 18:03:19.003
15, -27763.95, -27878.41, -28273.28, -28551.38, -28730.02, -35408.65, 114587.31, -27862.88, 0.000, 0.000, 0.000, 18:03:19.003
16, -27711.38, -27749.29, -28318.92, -28538.30, -28703.80, -35401.83, 114589.39, -28151.22, 0.030, 0.984, -0.012, 18:03:19.004
17, -27748.28, -28149.45, -28275.11, -28446.35, -28600.49, -35415.36, 114563.26, -28940.03, 0.000, 0.000, 0.000, 18:03:19.004
18, -27831.74, -28397.55, -28195.70, -28399.10, -28563.05, -35422.04, 114542.38, -29323.01, 0.000, 0.000, 0.000, 18:03:19.004
19, -27764.46, -28020.39, -28184.52, -28451.31, -28639.69, -35410.48, 114560.48, -28585.06, 0.000, 0.000, 0.000, 18:03:19.005
20, -27735.41, -27375.57, -28259.29, -28543.67, -28731.94, -35391.62, 114592.56, -27866.57, 0.000, 0.000, 0.000, 18:03:19.006
21, -27703.58, -27613.39, -28303.59, -28525.94, -28703.88, -35381.40, 114593.79, -28116.35, 0.000, 0.000, 0.000, 18:03:19.006
22, -27709.50, -28494.12, -28261.61, -28429.54, -28595.39, -35392.42, 114566.68, -28881.36, 0.000, 0.000, 0.000, 18:03:19.006
23, -27774.48, -28790.39, -28187.58, -28386.98, -28561.86, -35401.54, 114547.86, -29266.19, 0.000, 0.000, 0.000, 18:03:19.007
24, -27742.52, -28421.74, -28190.33, -28454.78, -28659.32, -35393.25, 114568.76, -28541.88, 0.000, 0.000, 0.000, 18:03:19.008
25, -27714.15, -27831.61, -28261.48, -28537.88, -28743.05, -35372.59, 114598.75, -27833.42, 0.000, 0.000, 0.000, 18:03:19.008
26, -27671.73, -27700.52, -28323.10, -28541.97, -28730.64, -35365.53, 114600.66, -28112.44, 0.028, 0.990, -0.016, 18:03:19.009
27, -27710.15, -28101.89, -28298.31, -28453.84, -28640.09, -35378.27, 114573.34, -28896.63, 0.000, 0.000, 0.000, 18:03:19.009
28, -27793.14, -28356.23, -28215.43, -28398.61, -28597.71, -35385.61, 114552.53, -29288.99, 0.000, 0.000, 0.000, 18:03:19.010
29, -27724.75, -27998.55, -28219.39, -28478.71, -28685.49, -35374.14, 114569.52, -28571.65, 0.000, 0.000, 0.000, 18:03:19.011
30, -27709.03, -27361.31, -28295.41, -28565.69, -28765.69, -35353.42, 114599.60, -27848.62, 0.000, 0.000, 0.000, 18:03:19.012
31, -27671.88, -27564.75, -28335.66, -28551.49, -28730.69, -35344.68, 114602.84, -28100.03, 0.000, 0.000, 0.000, 18:03:19.012
32, -27682.21, -28449.68, -28303.41, -28474.74, -28632.63, -35355.59, 114575.33, -28881.52, 0.000, 0.000, 0.000, 18:03:19.013
33, -27755.32, -28760.03, -28227.23, -28422.46, -28591.54, -35365.38, 114556.40, -29283.15, 0.000, 0.000, 0.000, 18:03:19.013
34, -27701.21, -28404.24, -28223.68, -28485.44, -28679.59, -35354.11, 114573.43, -28558.15, 0.000, 0.000, 0.000, 18:03:19.014
35, -27683.06, -27816.72, -28282.64, -28553.50, -28768.50, -35332.90, 114602.46, -27807.87, 0.000, 0.000, 0.000, 18:03:19.014
36, -27636.63, -27682.17, -28330.07, -28547.22, -28736.99, -35326.95, 114606.09, -28074.24, 0.026, 0.990, -0.022, 18:03:19.015
37, -27678.86, -28091.02, -28303.37, -28459.16, -28653.08, -35340.32, 114579.13, -28873.36, 0.000, 0.000, 0.000, 18:03:19.015
38, -27769.87, -28354.84, -28216.82, -28404.93, -28614.50, -35349.84, 114559.50, -29284.34, 0.000, 0.000, 0.000, 18:03:19.016
39, -27699.29, -27994.58, -28204.48, -28464.16, -28683.79, -35339.76, 114577.77, -28567.90, 0.000, 0.000, 0.000, 18:03:19.016
40, -27673.89, -27335.60, -28260.05, -28522.59, -28759.05, -35318.35, 114607.85, -27818.04, 0.000, 0.000, 0.000, 18:03:19.017
41, -27629.86, -27521.61, -28294.83, -28508.35, -28729.01, -35307.64, 114609.93, -28038.97, 0.000, 0.000, 0.000, 18:03:19.018
42, -27637.13, -28402.63, -28264.43, -28426.72, -28634.55, -35317.75, 114581.63, -28801.99, 0.000, 0.000, 0.000, 18:03:19.019
43, -27714.13, -28732.59, -28185.57, -28373.19, -28583.46, -35327.16, 114561.70, -29216.99, 0.000, 0.000, 0.000, 18:03:19.020
44, -27668.13, -28395.48, -28183.49, -28439.62, -28666.76, -35318.53, 114580.47, -28514.50, 0.000, 0.000, 0.000, 18:03:19.021
45, -27658.72, -27810.69, -28259.22, -28528.89, -28758.00, -35299.41, 114611.38, -27786.68, 0.038, 0.992, -0.016, 18:03:19.022
46, -27608.09, -27660.69, -28307.70, -28523.75, -28734.28, -35292.04, 114614.40, -28040.17, 0.000, 0.000, 0.000, 18:03:19.022
47, -27649.49, -28069.52, -28289.39, -28455.98, -28653.71, -35304.07, 114586.20, -28824.50, 0.000, 0.000, 0.000, 18:03:19.023
48, -27739.63, -28344.22, -28194.73, -28386.13, -28588.69, -35313.48, 114566.30, -29223.09, 0.000, 0.000, 0.000, 18:03:19.024
49, -27659.30, -27993.53, -28177.93, -28435.02, -28658.47, -35303.13, 114583.46, -28521.29, 0.000, 0.000, 0.000, 18:03:19.024
50, -27641.73, -27334.80, -28245.38, -28517.40, -28747.14, -35282.43, 114613.35, -27807.38, 0.000, 0.000, 0.000, 18:03:19.025
51, -27608.22, -27476.80, -28289.98, -28505.67, -28723.15, -35271.19, 114615.02, -28026.52, 0.000, 0.000, 0.000, 18:03:19.026
52, -27610.35, -28361.93, -28261.86, -28421.72, -28628.92, -35282.59, 114588.80, -28752.43, 0.000, 0.000, 0.000, 18:03:19.028
53, -27685.81, -28690.56, -28191.74, -28371.56, -28601.31, -35291.86, 114568.53, -29144.46, 0.000, 0.000, 0.000, 18:03:19.028
54, -27638.02, -28345.90, -28188.57, -28436.13, -28680.53, -35282.77, 114586.77, -28431.33, 0.000, 0.000, 0.000, 18:03:19.029
55, -27621.75, -27756.33, -28263.98, -28532.36, -28767.45, -35262.31, 114617.10, -27704.47, 0.038, 0.984, -0.016, 18:03:19.030
56, -27586.43, -27593.47, -28311.70, -28526.53, -28744.48, -35253.13, 114619.52, -27956.94, 0.000, 0.000, 0.000, 18:03:19.030
57, -27614.26, -27977.39, -28285.46, -28454.87, -28658.94, -35266.94, 114594.30, -28737.99, 0.000, 0.000, 0.000, 18:03:19.031
58, -27705.59, -28251.49, -28212.30, -28407.70, -28617.05, -35275.99, 114572.98, -29151.93, 0.000, 0.000, 0.000, 18:03:19.031
59, -27629.26, -27903.45, -28199.09, -28458.55, -28684.57, -35266.83, 114590.70, -28444.20, 0.000, 0.000, 0.000, 18:03:19.031
60, -27595.96, -27246.08, -28252.11, -28535.40, -28753.04, -35246.24, 114622.27, -27680.18, 0.000, 0.000, 0.000, 18:03:19.031
61, -27563.16, -27428.90, -28291.36, -28523.33, -28725.01, -35233.14, 114623.74, -27901.28, 0.000, 0.000, 0.000, 18:03:19.031
62, -27564.01, -28302.98, -28260.47, -28441.19, -28632.40, -35243.92, 114597.26, -28669.15, 0.000, 0.000, 0.000, 18:03:19.032
63, -27633.42, -28624.13, -28192.95, -28404.39, -28602.54, -35253.59, 114576.45, -29082.46, 0.000, 0.000, 0.000, 18:03:19.032
64, -27600.51, -28273.55, -28186.26, -28464.97, -28679.66, -35243.20, 114593.21, -28378.00, 0.000, 0.000, 0.000, 18:03:19.032
65, -27569.69, -27662.45, -28255.11, -28540.43, -28767.63, -35224.25, 114626.07, -27637.57, 0.038, 0.992, -0.014, 18:03:19.032
66, -27514.79, -27481.78, -28313.74, -28539.11, -28756.70, -35216.02, 114630.20, -27883.73, 0.000, 0.000, 0.000, 18:03:19.032
67, -27537.24, -27853.49, -28286.31, -28459.45, -28666.58, -35226.62, 114602.46, -28656.48, 0.000, 0.000, 0.000, 18:03:19.033
68, -27631.27, -28120.48, -28206.47, -28405.80, -28618.68, -35234.06, 114579.71, -29058.25, 0.000, 0.000, 0.000, 18:03:19.033
69, -27569.63, -27755.43, -28193.35, -28457.84, -28684.60, -35221.12, 114594.06, -28355.13, 0.000, 0.000, 0.000, 18:03:19.033
70, -27523.20, -27098.03, -28253.65, -28537.28, -28763.21, -35200.80, 114626.73, -27618.24, 0.000, 0.000, 0.000, 18:03:19.033
71, -27488.87, -27369.02, -28298.09, -28529.12, -28737.88, -35190.16, 114631.81, -27844.04, 0.000, 0.000, 0.000, 18:03:19.034
72, -27493.79, -28269.59, -28269.84, -28445.81, -28642.64, -35198.65, 114604.19, -28607.35, 0.000, 0.000, 0.000, 18:03:19.034
73, -27562.43, -28600.08, -28194.73, -28397.02, -28599.86, -35207.89, 114583.13, -29017.59, 0.000, 0.000, 0.000, 18:03:19.034
74, -27554.60, -28260.52, -28200.88, -28468.66, -28681.22, -35197.54, 114599.24, -28325.11, 0.000, 0.000, 0.000, 18:03:19.035
75, -27523.27, -27659.14, -28203.88, -28561.08, -28772.21, -35177.53, 114630.63, -27581.02, 0.032, 0.992, -0.018, 18:03:19.035
76, -27486.56, -27483.88, -28034.72, -28566.85, -28752.39, -35170.38, 114635.59, -27821.89, 0.000, 0.000, 0.000, 18:03:19.035
77, -27521.63, -27868.69, -28210.58, -28481.64, -28659.43, -35184.57, 114610.84, -28606.37, 0.000, 0.000, 0.000, 18:03:19.036
78, -27617.57, -28153.05, -28217.58, -28432.60, -28620.87, -35196.00, 114591.38, -29034.04, 0.000, 0.000, 0.000, 18:03:19.036
79, -27531.02, -27817.33, -28202.89, -28479.77, -28695.12, -35186.45, 114608.19, -28342.05, 0.000, 0.000, 0.000, 18:03:19.036
80, -27497.18, -27151.65, -28185.79, -28560.52, -28767.79, -35162.82, 114637.20, -27566.85, 0.000, 0.000, 0.000, 18:03:19.036
81, -27467.61, -27311.80, -28103.94, -28548.63, -28723.76, -35151.36, 114641.96, -27776.67, 0.000, 0.000, 0.000, 18:03:19.037
82, -27479.50, -28204.75, -28209.85, -28474.00, -28631.33, -35161.17, 114615.16, -28560.52, 0.000, 0.000, 0.000, 18:03:19.037
83, -27552.03, -28544.29, -28199.72, -28418.28, -28581.44, -35169.78, 114592.79, -28997.07, 0.000, 0.000, 0.000, 18:03:19.038
84, -27514.62, -28204.08, -28179.76, -28468.05, -28645.68, -35158.27, 114607.59, -28312.10, 0.000, 0.000, 0.000, 18:03:19.038
85, -27498.77, -27606.21, -28057.16, -28559.36, -28742.62, -35139.55, 114639.88, -27560.39, 0.032, 0.988, -0.012, 18:03:19.039
86, -27465.71, -27431.89, -27938.90, -28550.13, -28713.81, -35132.74, 114645.13, -27797.99, 0.000, 0.000, 0.000, 18:03:19.039
87, -27504.20, -27816.61, -28128.69, -28474.40, -28626.97, -35147.67, 114620.73, -28589.69, 0.000, 0.000, 0.000, 18:03:19.039
88, -27604.11, -28096.41, -28186.67, -28414.25, -28577.78, -35157.77, 114599.42, -29032.93, 0.000, 0.000, 0.000, 18:03:19.039
89, -27510.95, -27756.33, -28173.75, -28469.15, -28657.33, -35149.12, 114616.34, -28356.34, 0.000, 0.000, 0.000, 18:03:19.039
90, -27492.24, -27102.43, -27970.10, -28555.72, -28741.19, -35127.71, 114646.25, -27584.87, 0.000, 0.000, 0.000, 18:03:19.040
91, -27448.99, -27302.79, -27881.90, -28536.94, -28697.34, -35118.37, 114651.52, -27785.05, 0.000, 0.000, 0.000, 18:03:19.040
92, -27446.31, -28184.97, -28146.59, -28433.90, -28580.88, -35128.76, 114625.20, -28544.36, 0.000, 0.000, 0.000, 18:03:19.040
93, -27537.04, -28533.12, -28172.96, -28386.85, -28561.68, -35140.09, 114604.50, -28994.53, 0.000, 0.000, 0.000, 18:03:19.040
94, -27477.83, -28209.38, -28170.37, -28447.67, -28646.98, -35129.21, 114618.53, -28329.54, 0.042, 0.988, -0.012, 18:03:19.040
95, -27462.43, -27609.01, -28004.25, -28530.12, -28727.96, -35111.15, 114651.46, -27565.11, 0.000, 0.000, 0.000, 18:03:19.041
96, -27410.39, -27439.22, -27774.70, -28539.76, -28711.40, -35105.76, 114657.72, -27796.81, 0.000, 0.000, 0.000, 18:03:19.041
97, -27455.54, -27829.87, -28030.63, -28469.26, -28622.03, -35119.08, 114631.12, -28587.75, 0.000, 0.000, 0.000, 18:03:19.041
98, -27570.07, -28123.34, -28175.80, -28409.83, -28572.84, -35129.09, 114608.61, -29056.75, 0.000, 0.000, 0.000, 18:03:19.041
99, -27468.84, -27801.08, -28158.44, -28457.95, -28631.31, -35119.15, 114623.72, -28395.23, 0.000, 0.000, 0.000, 18:03:19.041
100, -27456.21, -27143.67, -27980.54, -28546.95, -28714.26, -35099.64, 114655.55, -27605.65, 0.000, 0.000, 0.000, 18:03:19.042
101, -27413.88, -27270.00, -27769.83, -28545.48, -28689.85, -35091.77, 114662.34, -27788.74, 0.000, 0.000, 0.000, 18:03:19.042
102, -27427.29, -28175.45, -28016.95, -28456.77, -28596.96, -35105.85, 114638.41, -28555.76, 0.000, 0.000, 0.000, 18:03:19.042
103, -27530.51, -28539.02, -28171.49, -28408.87, -28556.72, -35116.40, 114616.01, -29031.18, 0.000, 0.000, 0.000, 18:03:19.042
104, -27464.30, -28222.96, -28148.82, -28472.52, -28624.63, -35108.53, 114632.73, -28379.83, 0.044, 0.990, -0.014, 18:03:19.042
105, -27468.30, -27648.08, -27900.27, -28893.21, -28712.38, -35089.13, 114662.57, -27617.90, 0.000, 0.000, 0.000, 18:03:19.471
106, -27410.44, -27575.03, -27780.04, -29390.13, -28690.63, -35090.29, 114668.67, -27879.75, 0.000, 0.000, 0.000, 18:03:19.471
107, -27580.40, -28077.50, -28090.87, -29307.32, -28561.51, -35113.83, 114644.13, -28727.69, 0.000, 0.000, 0.000, 18:03:19.471
108, -27812.19, -28479.14, -28170.75, -29247.84, -28523.84, -35133.34, 114622.49, -29299.67, 0.000, 0.000, 0.000, 18:03:19.471
109, -27604.31, -28267.13, -28156.92, -29293.05, -28590.41, -35133.43, 114638.49, -28723.02, 0.000, 0.000, 0.000, 18:03:19.472
110, -27460.57, -27795.76, -28140.67, -29377.48, -28681.31, -35125.56, 114670.75, -27862.41, 0.000, 0.000, 0.000, 18:03:19.472
111, -27392.55, -27734.92, -28050.70, -29370.79, -28656.99, -35126.88, 114675.55, -27961.90, 0.000, 0.000, 0.000, 18:03:19.472
112, -27631.11, -28224.33, -28184.52, -29292.18, -28563.79, -35148.83, 114650.03, -28761.58, 0.000, 0.000, 0.000, 18:03:19.472
113, -27869.41, -28621.52, -28165.83, -29229.93, -28511.93, -35170.18, 114630.13, -29345.02, 0.000, 0.000, 0.000, 18:03:19.472
114, -27662.99, -28417.29, -28142.57, -29269.74, -28571.83, -35169.73, 114645.11, -28784.51, 0.048, 1.002, -0.006, 18:03:19.472
115, -27492.42, -27951.50, -28207.36, -29359.55, -28663.63, -35161.39, 114676.70, -27919.72, 0.000, 0.000, 0.000, 18:03:19.476
116, -27418.73, -27882.15, -28224.91, -29364.98, -28652.50, -35162.69, 114681.97, -27984.85, 0.000, 0.000, 0.000, 18:03:19.476
117, -27651.90, -28361.55, -28242.48, -29278.68, -28559.47, -35185.64, 114658.48, -28764.53, 0.000, 0.000, 0.000, 18:03:19.477
118, -27890.10, -28761.58, -28162.84, -29211.25, -28503.81, -35205.38, 114636.93, -29349.85, 0.000, 0.000, 0.000, 18:03:19.477
119, -27687.46, -28560.30, -28149.18, -29255.84, -28565.95, -35204.31, 114650.61, -28799.35, 0.000, 0.000, 0.000, 18:03:19.477
120, -27532.63, -28085.35, -28216.64, -29337.58, -28651.20, -35195.61, 114681.88, -27947.37, 0.000, 0.000, 0.000, 18:03:19.478
121, -27466.45, -28003.43, -28274.60, -29342.52, -28642.80, -35199.37, 114690.57, -28027.97, 0.000, 0.000, 0.000, 18:03:19.478
122, -27688.71, -28480.53, -28258.84, -29272.16, -28561.88, -35220.78, 114665.38, -28815.85, 0.000, 0.000, 0.000, 18:03:19.478
123, -27932.33, -28886.70, -28174.42, -29208.39, -28506.68, -35238.29, 114640.88, -29410.63, 0.000, 0.000, 0.000, 18:03:19.478
124, -27732.23, -28693.96, -28151.66, -29246.14, -28566.74, -35238.93, 114655.77, -28864.77, 0.042, 0.992, -0.004, 18:03:19.479
125, -27548.77, -28233.61, -28224.24, -29339.99, -28664.59, -35233.23, 114689.57, -27997.86, 0.000, 0.000, 0.000, 18:03:19.479
126, -27462.07, -28162.50, -28293.33, -29350.81, -28669.04, -35237.25, 114698.20, -28051.93, 0.000, 0.000, 0.000, 18:03:19.479
127, -27694.06, -28634.86, -28257.10, -29252.71, -28567.99, -35257.42, 114672.40, -28823.54, 0.000, 0.000, 0.000, 18:03:19.479
128, -27938.63, -29048.88, -28170.17, -29181.74, -28516.15, -35278.05, 114650.81, -29424.26, 0.000, 0.000, 0.000, 18:03:19.480
129, -27753.47, -28870.38, -28163.13, -29241.58, -28583.77, -35279.39, 114665.43, -28897.65, 0.000, 0.000, 0.000, 18:03:19.480
130, -27612.36, -28404.75, -28231.57, -29324.68, -28667.03, -35269.35, 114695.18, -28033.58, 0.000, 0.000, 0.000, 18:03:19.480
131, -27512.25, -28321.04, -28297.35, -29343.10, -28673.09, -35269.82, 114701.05, -28092.52, 0.000, 0.000, 0.000, 18:03:19.480
132, -27728.08, -28784.06, -28271.51, -29253.78, -28574.80, -35290.92, 114676.31, -28865.53, 0.000, 0.000, 0.000, 18:03:19.480
133, -27966.90, -29187.62, -28178.49, -29175.08, -28508.58, -35309.18, 114652.46, -29467.18, 0.000, 0.000, 0.000, 18:03:19.481
134, -27776.04, -28999.46, -28155.75, -29220.68, -28569.11, -35311.22, 114668.42, -28935.61, 0.040, 0.986, -0.006, 18:03:19.481
135, -27651.50, -28532.47, -28231.01, -29315.38, -28663.38, -35300.20, 114697.46, -28066.01, 0.000, 0.000, 0.000, 18:03:19.481
136, -27558.92, -28445.95, -28298.54, -29332.97, -28664.79, -35302.28, 114705.55, -28112.62, 0.000, 0.000, 0.000, 18:03:19.481
137, -27763.97, -28914.17, -28273.50, -29252.26, -28571.47, -35323.98, 114681.86, -28883.19, 0.000, 0.000, 0.000, 18:03:19.481
138, -28004.05, -29326.92, -28174.02, -29169.18, -28496.35, -35344.39, 114660.29, -29489.46, 0.000, 0.000, 0.000, 18:03:19.481
139, -27814.89, -29149.22, -28157.56, -29212.75, -28566.06, -35345.01, 114674.44, -28963.95, 0.000, 0.000, 0.000, 18:03:19.481
140, -27668.42, -28682.09, -28224.22, -29299.31, -28647.31, -35333.21, 114703.25, -28088.79, 0.000, 0.000, 0.000, 18:03:19.482
141, -27573.98, -28596.87, -28290.94, -29315.59, -28648.77, -35335.49, 114711.67, -28133.60, 0.000, 0.000, 0.000, 18:03:19.482
142, -27793.07, -29070.03, -28278.64, -29253.45, -28575.70, -35357.71, 114688.45, -28906.21, 0.000, 0.000, 0.000, 18:03:19.482
143, -28041.58, -29483.98, -28197.19, -29184.83, -28527.44, -35375.48, 114663.66, -29516.82, 0.036, 0.994, -0.008, 18:03:19.482
144, -27850.81, -29300.16, -28162.39, -29217.24, -28577.08, -35376.39, 114678.23, -28994.95, 0.000, 0.000, 0.000, 18:03:19.482
145, -27714.31, -28831.27, -28219.05, -29293.97, -28664.84, -35368.62, 114711.34, -28127.46, 0.000, 0.000, 0.000, 18:03:19.482
146, -27635.88, -28737.53, -28262.04, -29292.63, -28650.02, -35370.05, 114719.99, -28175.60, 0.000, 0.000, 0.000, 18:03:19.483
147, -27837.80, -29205.01, -28233.65, -29205.95, -28555.69, -35390.01, 114695.13, -28945.15, 0.000, 0.000, 0.000, 18:03:19.483
148, -28088.16, -29625.63, -28152.45, -29143.39, -28505.16, -35411.38, 114673.85, -29565.30, 0.000, 0.000, 0.000, 18:03:19.483
149, -27903.18, -29453.96, -28137.58, -29199.80, -28570.78, -35414.71, 114690.06, -29055.19, 0.000, 0.000, 0.000, 18:03:19.483
150, -27740.62, -28987.53, -28203.74, -29283.15, -28661.13, -35400.89, 114716.77, -28171.82, 0.000, 0.000, 0.000, 18:03:19.483
151, -27672.80, -28890.48, -28264.58, -29288.92, -28658.09, -35401.52, 114724.70, -28208.30, 0.000, 0.000, 0.000, 18:03:19.483
152, -27873.32, -29355.93, -28243.57, -29204.90, -28562.29, -35422.98, 114701.64, -28977.09, 0.000, 0.000, 0.000, 18:03:19.484
153, -28118.65, -29779.05, -28144.47, -29124.41, -28488.68, -35441.21, 114677.37, -29593.06, 0.036, 0.990, -0.008, 18:03:19.484
154, -27937.13, -29616.22, -28132.37, -29186.04, -28558.80, -35443.23, 114691.58, -29091.82, 0.000, 0.000, 0.000, 18:03:19.484
155, -27765.47, -29147.37, -28205.15, -29272.34, -28650.73, -35435.07, 114724.08, -28208.57, 0.000, 0.000, 0.000, 18:03:19.484
156, -27666.21, -29043.54, -28261.99, -29284.29, -28630.17, -35437.53, 114734.27, -28234.07, 0.000, 0.000, 0.000, 18:03:19.484
157, -27877.45, -29502.33, -28237.11, -29193.95, -28547.11, -35460.28, 114712.19, -28996.67, 0.000, 0.000, 0.000, 18:03:19.484
158, -28133.80, -29931.02, -28161.28, -29130.56, -28503.26, -35480.06, 114688.41, -29627.93, 0.000, 0.000, 0.000, 18:03:19.485
159, -27958.70, -29771.43, -28151.13, -29183.20, -28575.61, -35481.76, 114702.02, -29135.16, 0.000, 0.000, 0.000, 18:03:19.485
160, -27826.91, -29304.37, -28215.92, -29270.26, -28657.84, -35470.96, 114732.02, -28249.34, 0.000, 0.000, 0.000, 18:03:19.485
161, -27732.26, -29197.99, -28270.24, -29274.17, -28636.18, -35470.07, 114739.19, -28265.26, 0.000, 0.000, 0.000, 18:03:19.485
162, -27929.24, -29663.94, -28254.30, -29202.02, -28547.63, -35490.19, 114714.55, -29028.28, 0.000, 0.000, 0.000, 18:03:19.486
163, -28187.94, -30098.77, -28174.75, -29139.66, -28501.69, -35510.73, 114691.29, -29662.53, 0.030, 0.984, -0.008, 18:03:19.486
164, -28010.89, -29945.39, -28167.15, -29197.43, -28577.40, -35512.94, 114704.79, -29174.10, 0.000, 0.000, 0.000, 18:03:19.486
165, -27831.34, -29484.65, -28229.96, -29271.93, -28656.92, -35502.86, 114735.21, -28279.56, 0.000, 0.000, 0.000, 18:03:19.486
166, -27739.05, -29383.20, -28279.67, -29273.45, -28643.89, -35503.58, 114744.38, -28293.20, 0.000, 0.000, 0.000, 18:03:19.487
167, -27946.79, -29851.74, -28258.24, -29197.41, -28562.64, -35523.76, 114719.77, -29051.70, 0.000, 0.000, 0.000, 18:03:19.487
168, -28202.36, -30288.09, -28158.35, -29118.64, -28490.29, -35543.30, 114695.70, -29682.15, 0.000, 0.000, 0.000, 18:03:19.487
169, -28028.42, -30140.12, -28134.59, -29167.04, -28565.39, -35545.80, 114709.48, -29192.18, 0.000, 0.000, 0.000, 18:03:19.487
170, -27888.14, -29682.42, -28213.62, -29255.37, -28673.35, -35535.41, 114739.14, -28310.63, 0.000, 0.000, 0.000, 18:03:19.487
171, -27808.45, -29572.27, -28262.08, -29254.63, -28665.02, -35535.14, 114747.30, -28326.68, 0.000, 0.000, 0.000, 18:03:19.487
172, -27999.94, -30037.10, -28250.46, -29185.86, -28593.96, -35556.82, 114724.64, -29075.51, 0.000, 0.000, 0.000, 18:03:19.487
173, -28253.41, -30469.99, -28159.15, -29102.95, -28520.24, -35575.64, 114699.91, -29705.78, 0.028, 0.986, -0.008, 18:03:19.488
174, -28073.97, -30307.96, -28128.98, -29141.96, -28579.21, -35576.58, 114712.26, -29218.91, 0.000, 0.000, 0.000, 18:03:19.488
175, -27916.05, -29833.65, -28199.70, -29232.21, -28673.33, -35568.98, 114745.72, -28330.01, 0.000, 0.000, 0.000, 18:03:19.488
176, -27852.11, -29717.00, -28260.14, -29249.09, -28664.50, -35568.60, 114754.70, -28345.59, 0.000, 0.000, 0.000, 18:03:19.488
177, -28032.86, -30171.77, -28242.46, -29174.97, -28581.22, -35586.79, 114729.38, -29093.21, 0.000, 0.000, 0.000, 18:03:19.488
178, -28289.84, -30607.47, -28154.35, -29096.85, -28517.58, -35606.77, 114705.39, -29731.82, 0.000, 0.000, 0.000, 18:03:19.488
179, -28113.62, -30449.85, -28120.44, -29123.23, -28558.58, -35608.65, 114718.49, -29256.78, 0.000, 0.000, 0.000, 18:03:19.489
180, -27946.90, -29975.97, -28183.58, -29207.67, -28645.37, -35598.08, 114749.02, -28361.48, 0.000, 0.000, 0.000, 18:03:19.489
181, -27856.78, -29858.60, -28232.91, -29215.09, -28625.77, -35599.38, 114759.95, -28367.71, 0.000, 0.000, 0.000, 18:03:19.489
182, -28053.83, -30318.75, -28234.30, -29168.04, -28549.19, -35621.32, 114737.94, -29116.74, 0.000, 0.000, 0.000, 18:03:19.489
183, -28320.64, -30761.16, -28169.70, -29106.62, -28504.49, -35641.64, 114713.48, -29758.08, 0.026, 0.984, -0.010, 18:03:19.489
184, -28142.97, -30605.75, -28130.14, -29130.71, -28538.17, -35641.49, 114724.70, -29274.57, 0.000, 0.000, 0.000, 18:03:19.489
185, -27977.95, -30136.39, -28194.29, -29215.29, -28631.29, -35632.28, 114756.83, -28387.99, 0.000, 0.000, 0.000, 18:03:19.489
186, -27887.02, -30023.40, -28273.73, -29253.94, -28659.88, -35632.14, 114766.21, -28417.89, 0.000, 0.000, 0.000, 18:03:19.490
187, -28075.38, -30478.88, -28261.41, -29181.68, -28578.25, -35653.47, 114744.17, -29166.21, 0.000, 0.000, 0.000, 18:03:19.490
188, -28333.67, -30912.48, -28166.95, -29095.76, -28510.32, -35670.61, 114717.33, -29801.36, 0.000, 0.000, 0.000, 18:03:19.490
189, -28164.81, -30764.04, -28140.35, -29132.53, -28572.64, -35673.20, 114730.43, -29324.08, 0.000, 0.000, 0.000, 18:03:19.490
190, -28002.98, -30298.19, -28205.58, -29230.76, -28666.13, -35663.26, 114761.52, -28422.39, 0.000, 0.000, 0.000, 18:03:19.490
191, -27904.34, -30173.94, -28264.99, -29239.34, -28664.86, -35663.08, 114771.58, -28422.39, 0.000, 0.000, 0.000, 18:03:19.490
192, -28090.38, -30621.13, -28250.73, -29162.01, -28583.23, -35684.65, 114750.16, -29154.92, 0.032, 0.990, -0.010, 18:03:19.491
193, -28354.55, -31060.23, -28159.98, -29082.37, -28521.79, -35703.22, 114724.30, -29792.01, 0.000, 0.000, 0.000, 18:03:19.491
194, -28189.66, -30916.42, -28122.34, -29106.57, -28560.77, -35705.77, 114736.93, -29321.29, 0.000, 0.000, 0.000, 18:03:19.491
195, -28046.03, -30446.72, -28187.94, -29212.37, -28636.00, -35697.16, 114769.34, -28433.45, 0.000, 0.000, 0.000, 18:03:19.491
196, -27947.50, -30309.32, -28252.09, -29237.80, -28634.62, -35696.20, 114779.06, -28450.89, 0.000, 0.000, 0.000, 18:03:19.491
197, -28124.24, -30748.20, -28234.59, -29160.46, -28542.82, -35716.23, 114756.29, -29186.59, 0.000, 0.000, 0.000, 18:03:19.491
198, -28386.42, -31187.68, -28137.98, -29077.65, -28453.68, -35736.23, 114731.81, -29819.33, 0.000, 0.000, 0.000, 18:03:19.491
199, -28227.50, -31054.44, -28116.41, -29122.11, -28521.61, -35737.33, 114742.30, -29354.12, 0.000, 0.000, 0.000, 18:03:19.492
200, -28084.43, -30587.49, -28195.70, -29226.18, -28635.02, -35727.38, 114773.32, -28473.98, 0.000, 0.000, 0.000, 18:03:19.492
201, -27979.71, -30450.54, -28263.18, -29242.50, -28641.44, -35725.60, 114782.69, -28488.95, 0.000, 0.000, 0.000, 18:03:19.492
202, -28147.91, -30886.27, -28238.37, -29156.53, -28527.46, -35745.82, 114760.52, -29221.44, 0.030, 0.990, -0.010, 18:03:19.492
203, -28414.59, -31328.56, -28157.54, -29093.97, -28456.99, -35766.46, 114736.10, -29869.62, 0.000, 0.000, 0.000, 18:03:19.492
204, -28254.95, -31186.20, -28138.95, -29139.59, -28514.90, -35767.77, 114746.90, -29408.97, 0.000, 0.000, 0.000, 18:03:19.492
205, -28118.87, -30707.63, -28209.71, -29229.80, -28609.27, -35759.15, 114779.84, -28507.91, 0.000, 0.000, 0.000, 18:03:19.492
206, -28035.84, -30559.26, -28269.75, -29243.93, -28611.35, -35758.57, 114790.87, -28502.52, 0.000, 0.000, 0.000, 18:03:19.493
207, -28194.80, -30994.36, -28253.25, -29169.45, -28527.64, -35778.59, 114768.96, -29226.49, 0.000, 0.000, 0.000, 18:03:19.493
208, -28462.53, -31440.81, -28169.93, -29103.63, -28459.38, -35798.26, 114743.41, -29875.54, 0.000, 0.000, 0.000, 18:03:19.493
209, -28305.89, -31310.99, -28147.71, -29150.41, -28523.89, -35800.70, 114754.88, -29426.00, 0.000, 0.000, 0.000, 18:03:19.493
210, -28146.19, -30834.54, -28210.11, -29242.27, -28624.07, -35792.14, 114787.89, -28539.06, 0.000, 0.000, 0.000, 18:03:19.493
211, -28058.95, -30684.45, -28277.08, -29263.04, -28638.33, -35791.42, 114798.87, -28535.53, 0.000, 0.000, 0.000, 18:03:19.493
212, -28224.49, -31117.79, -28259.49, -29178.05, -28550.46, -35810.58, 114776.20, -29249.80, 0.030, 0.982, -0.016, 18:03:19.493
213, -28492.68, -31571.10, -28170.84, -29094.42, -28484.15, -35831.23, 114751.59, -29897.65, 0.000, 0.000, 0.000, 18:03:19.494
214, -28336.36, -31446.40, -28140.60, -29131.01, -28544.54, -35834.54, 114763.64, -29445.20, 0.000, 0.000, 0.000, 18:03:19.494
215, -28180.34, -30970.89, -28202.80, -29227.03, -28642.17, -35822.85, 114793.66, -28553.06, 0.000, 0.000, 0.000, 18:03:19.494
216, -28079.06, -30816.60, -28263.58, -29246.72, -28639.09, -35821.57, 114805.09, -28569.17, 0.000, 0.000, 0.000, 18:03:19.494
217, -28237.23, -31246.31, -28239.73, -29154.77, -28547.85, -35841.78, 114783.60, -29300.43, 0.000, 0.000, 0.000, 18:03:19.494
218, -28510.30, -31698.86, -28151.84, -29076.42, -28468.25, -35863.30, 114759.40, -29964.03, 0.000, 0.000, 0.000, 18:03:19.494
219, -28360.83, -31574.83, -28123.50, -29117.82, -28518.52, -35865.03, 114769.45, -29524.17, 0.000, 0.000, 0.000, 18:03:19.494
220, -28222.12, -31097.51, -28187.43, -29206.96, -28612.04, -35853.49, 114799.56, -28618.77, 0.000, 0.000, 0.000, 18:03:19.494
221, -28133.18, -30939.96, -28252.47, -29220.52, -28614.68, -35852.91, 114811.81, -28607.62, 0.000, 0.000, 0.000, 18:03:19.495
222, -28288.14, -31371.21, -28241.29, -29148.82, -28532.45, -35872.05, 114789.48, -29331.61, 0.032, 0.990, -0.012, 18:03:19.495
223, -28562.64, -31826.63, -28161.74, -29088.20, -28459.58, -35892.03, 114763.42, -29995.08, 0.000, 0.000, 0.000, 18:03:19.495
224, -28407.75, -31709.64, -28137.65, -29124.23, -28515.84, -35893.75, 114773.27, -29557.92, 0.000, 0.000, 0.000, 18:03:19.495
225, -28232.64, -31244.32, -28206.07, -29222.02, -28611.51, -35883.67, 114804.57, -28644.47, 0.000, 0.000, 0.000, 18:03:19.957
226, -28167.58, -31092.66, -28270.26, -29245.76, -28607.08, -35882.62, 114816.23, -28619.06, 0.000, 0.000, 0.000, 18:03:19.957
227, -28319.06, -31525.82, -28259.11, -29177.88, -28514.70, -35903.85, 114796.39, -29339.93, 0.000, 0.000, 0.000, 18:03:19.958
228, -28593.74, -31988.41, -28180.99, -29100.76, -28455.16, -35925.60, 114772.20, -30006.52, 0.000, 0.000, 0.000, 18:03:19.958
229, -28441.41, -31875.08, -28151.19, -29133.44, -28517.03, -35928.10, 114782.59, -29574.60, 0.000, 0.000, 0.000, 18:03:19.959
230, -28264.07, -31406.30, -28224.31, -29244.28, -28626.32, -35915.74, 114811.70, -28665.51, 0.000, 0.000, 0.000, 18:03:19.959
231, -28198.67, -31244.54, -28288.30, -29268.67, -28634.69, -35913.51, 114822.92, -28648.05, 0.000, 0.000, 0.000, 18:03:19.960
232, -28343.69, -31667.44, -28270.20, -29180.78, -28555.52, -35932.20, 114800.77, -29371.11, 0.038, 0.996, -0.014, 18:03:19.960
233, -28612.51, -32126.99, -28179.76, -29104.63, -28487.65, -35953.47, 114775.98, -30044.83, 0.000, 0.000, 0.000, 18:03:19.961
234, -28464.54, -32017.89, -28153.68, -29140.68, -28550.91, -35957.83, 114787.73, -29628.87, 0.000, 0.000, 0.000, 18:03:19.961
235, -28302.69, -31545.51, -28211.32, -29225.60, -28642.55, -35946.21, 114818.07, -28715.04, 0.000, 0.000, 0.000, 18:03:19.962
236, -28235.37, -31379.59, -28272.12, -29252.38, -28645.12, -35943.53, 114829.38, -28685.40, 0.000, 0.000, 0.000, 18:03:19.962
237, -28373.71, -31802.33, -28257.16, -29181.03, -28557.46, -35963.53, 114808.79, -29407.09, 0.000, 0.000, 0.000, 18:03:19.962
238, -28646.15, -32263.20, -28158.55, -29095.85, -28474.49, -35982.26, 114781.66, -30085.36, 0.000, 0.000, 0.000, 18:03:19.963
239, -28501.87, -32157.81, -28124.44, -29130.74, -28519.95, -35986.91, 114793.73, -29675.67, 0.000, 0.000, 0.000, 18:03:19.963
240, -28342.84, -31689.77, -28193.91, -29224.28, -28624.92, -35977.05, 114825.55, -28765.15, 0.000, 0.000, 0.000, 18:03:19.963
241, -28240.36, -31528.50, -28270.31, -29257.58, -28637.66, -35974.10, 114836.28, -28730.93, 0.044, 0.986, -0.016, 18:03:19.963
242, -28388.30, -31949.72, -28243.71, -29176.22, -28525.68, -35991.58, 114813.60, -29445.23, 0.000, 0.000, 0.000, 18:03:19.963
243, -28661.39, -32412.06, -28148.62, -29095.58, -28449.88, -36013.93, 114789.95, -30127.27, 0.000, 0.000, 0.000, 18:03:19.964
244, -28519.46, -32305.13, -28120.33, -29127.70, -28507.95, -36018.96, 114802.09, -29722.10, 0.000, 0.000, 0.000, 18:03:19.964
245, -28372.01, -31832.62, -28183.94, -29225.89, -28605.11, -36008.14, 114832.91, -28800.76, 0.000, 0.000, 0.000, 18:03:19.964
246, -28285.84, -31659.63, -28257.10, -29247.35, -28620.04, -36004.75, 114843.80, -28743.27, 0.000, 0.000, 0.000, 18:03:19.964
247, -28424.36, -32073.54, -28251.42, -29178.37, -28524.20, -36023.25, 114822.54, -29451.82, 0.000, 0.000, 0.000, 18:03:19.965
248, -28705.36, -32538.69, -28178.87, -29116.03, -28464.86, -36045.25, 114797.88, -30148.72, 0.000, 0.000, 0.000, 18:03:19.965
249, -28562.96, -32436.72, -28158.53, -29156.08, -28532.87, -36046.32, 114805.28, -29758.64, 0.000, 0.000, 0.000, 18:03:19.965
250, -28393.31, -31959.35, -28219.10, -29245.71, -28630.39, -36035.91, 114836.40, -28830.42, 0.000, 0.000, 0.000, 18:03:19.965
251, -28336.33, -31776.49, -28284.52, -29260.06, -28642.84, -36035.41, 114850.73, -28769.02, 0.040, 0.994, -0.016, 18:03:19.966
252, -28462.46, -32187.67, -28276.36, -29187.85, -28570.20, -36054.14, 114829.55, -29483.13, 0.000, 0.000, 0.000, 18:03:19.966
253, -28743.18, -32653.57, -28192.34, -29110.02, -28507.23, -36073.97, 114802.31, -30182.61, 0.000, 0.000, 0.000, 18:03:19.966
254, -28600.31, -32549.73, -28149.25, -29134.34, -28555.34, -36076.96, 114811.92, -29793.40, 0.000, 0.000, 0.000, 18:03:19.966
255, -28432.76, -32073.81, -28213.96, -29229.26, -28664.55, -36065.97, 114842.32, -28872.82, 0.000, 0.000, 0.000, 18:03:19.966
0, -28333.72, -31895.09, -28284.54, -29254.21, -28677.78, -36063.60, 114854.34, -28793.25, 0.000, 0.000, 0.000, 18:03:19.967
1, -28473.26, -32307.63, -28261.43, -29173.92, -28576.30, -36084.32, 114835.86, -29487.74, 0.000, 0.000, 0.000, 18:03:19.967
2, -28758.02, -32782.23, -28181.21, -29108.52, -28510.57, -36105.42, 114809.82, -30193.54, 0.000, 0.000, 0.000, 18:03:19.967
3, -28624.51, -32692.76, -28159.93, -29146.45, -28578.18, -36110.11, 114820.21, -29816.15, 0.000, 0.000, 0.000, 18:03:19.968
4, -28465.46, -32221.36, -28220.13, -29238.03, -28667.54, -36099.59, 114851.35, -28898.37, 0.000, 0.000, 0.000, 18:03:19.968
5, -28385.33, -32040.00, -28281.30, -29257.72, -28671.23, -36097.55, 114864.70, -28833.93, 0.038, 0.994, -0.014, 18:03:19.969
6, -28516.11, -32458.42, -28279.87, -29198.08, -28602.59, -36116.33, 114843.95, -29543.95, 0.000, 0.000, 0.000, 18:03:19.969
7, -28797.90, -32934.96, -28195.25, -29124.77, -28527.02, -36136.55, 114817.24, -30252.10, 0.000, 0.000, 0.000, 18:03:19.969
8, -28663.63, -32850.34, -28164.34, -29162.92, -28574.25, -36140.64, 114826.79, -29883.25, 0.000, 0.000, 0.000, 18:03:19.970
9, -28486.69, -32383.90, -28219.72, -29240.80, -28661.28, -36130.99, 114858.86, -28942.09, 0.000, 0.000, 0.000, 18:03:19.970
10, -28396.75, -32211.12, -28287.14, -29272.22, -28676.77, -36130.43, 114873.84, -28850.16, 0.000, 0.000, 0.000, 18:03:19.970
11, -28528.20, -32630.91, -28274.89, -29198.31, -28589.53, -36149.07, 114853.63, -29551.29, 0.000, 0.000, 0.000, 18:03:19.971
12, -28815.89, -33117.53, -28198.51, -29126.89, -28510.70, -36168.45, 114826.48, -30263.61, 0.000, 0.000, 0.000, 18:03:19.971
13, -28687.17, -33035.96, -28166.35, -29157.76, -28554.78, -36175.16, 114837.96, -29899.28, 0.000, 0.000, 0.000, 18:03:19.971
14, -28529.56, -32568.19, -28229.71, -29249.54, -28651.40, -36165.14, 114868.92, -28969.92, 0.000, 0.000, 0.000, 18:03:19.971
15, -28442.46, -32374.11, -28293.64, -29268.07, -28668.14, -36160.32, 114880.32, -28890.72, 0.040, 0.996, -0.016, 18:03:19.971
16, -28565.51, -32773.78, -28285.06, -29201.48, -28586.09, -36178.31, 114859.71, -29600.79, 0.000, 0.000, 0.000, 18:03:19.971
17, -28851.99, -33249.14, -28204.73, -29120.66, -28525.36, -36198.61, 114834.03, -30316.70, 0.000, 0.000, 0.000, 18:03:19.972
18, -28722.42, -33163.10, -28170.51, -29153.76, -28579.25, -36202.43, 114841.88, -29956.10, 0.000, 0.000, 0.000, 18:03:19.972
19, -28566.78, -32692.64, -28235.10, -29252.84, -28686.05, -36193.55, 114873.63, -29017.82, 0.000, 0.000, 0.000, 18:03:19.972
20, -28479.00, -32502.10, -28296.21, -29267.80, -28700.06, -36191.16, 114887.88, -28927.38, 0.000, 0.000, 0.000, 18:03:19.972
21, -28603.46, -32910.19, -28288.86, -29209.08, -28613.67, -36209.60, 114868.18, -29638.86, 0.000, 0.000, 0.000, 18:03:19.972
22, -28887.55, -33381.68, -28199.52, -29119.14, -28535.89, -36226.84, 114840.82, -30358.27, 0.000, 0.000, 0.000, 18:03:19.973
23, -28760.14, -33293.17, -28166.28, -29152.46, -28585.91, -36233.41, 114850.14, -30007.33, 0.000, 0.000, 0.000, 18:03:19.973
24, -28592.19, -32815.51, -28227.91, -29248.11, -28675.34, -36227.13, 114883.58, -29072.96, 0.000, 0.000, 0.000, 18:03:19.973
25, -28517.27, -32609.32, -28285.26, -29258.41, -28683.37, -36221.29, 114894.58, -28962.99, 0.040, 0.986, -0.018, 18:03:19.973
26, -28634.46, -33003.73, -28278.11, -29193.81, -28607.53, -36237.65, 114874.20, -29657.10, 0.000, 0.000, 0.000, 18:03:19.973
27, -28915.96, -33474.22, -28186.91, -29110.44, -28536.94, -36251.09, 114846.14, -30378.50, 0.000, 0.000, 0.000, 18:03:19.973
28, -28786.10, -33387.67, -28146.43, -29139.34, -28563.99, -36257.46, 114855.02, -30029.61, 0.000, 0.000, 0.000, 18:03:19.973
29, -28627.64, -32914.26, -28213.85, -29234.34, -28663.85, -36254.15, 114888.03, -29093.16, 0.000, 0.000, 0.000, 18:03:19.974
30, -28542.44, -32714.10, -28288.41, -29276.92, -28679.52, -36250.86, 114900.52, -28970.50, 0.000, 0.000, 0.000, 18:03:19.974
31, -28660.77, -33105.21, -28278.51, -29195.13, -28598.21, -36265.21, 114880.43, -29649.68, 0.000, 0.000, 0.000, 18:03:19.974
32, -28939.43, -33573.08, -28198.80, -29124.97, -28607.59, -36282.82, 114853.83, -30371.55, 0.000, 0.000, 0.000, 18:03:19.974
33, -28796.24, -33471.82, -28161.77, -29154.25, -28600.22, -36284.90, 114860.98, -30017.03, 0.000, 0.000, 0.000, 18:03:19.974
34, -28657.24, -32994.17, -28233.27, -29257.00, -28659.72, -36280.50, 114893.86, -29092.18, 0.034, 0.990, -0.018, 18:03:19.974
35, -28572.03, -32787.95, -28307.23, -29287.71, -28680.62, -36278.42, 114908.28, -28998.84, 0.000, 0.000, 0.000, 18:03:19.975
36, -28681.13, -33185.01, -28306.38, -29215.88, -28626.75, -36292.53, 114887.49, -29698.43, 0.000, 0.000, 0.000, 18:03:19.975
37, -28961.09, -33656.90, -28228.04, -29140.46, -28629.54, -36309.43, 114860.89, -30424.68, 0.000, 0.000, 0.000, 18:03:19.975
38, -28826.73, -33562.39, -28197.11, -29172.20, -28634.97, -36314.14, 114868.88, -30077.00, 0.000, 0.000, 0.000, 18:03:19.975
39, -28688.51, -33081.21, -28262.91, -29271.31, -28708.15, -36307.88, 114899.85, -29138.65, 0.000, 0.000, 0.000, 18:03:19.975
40, -28605.07, -32874.03, -28340.87, -29308.99, -28730.75, -36307.26, 114915.97, -29033.28, 0.000, 0.000, 0.000, 18:03:19.975
41, -28710.05, -33262.41, -28336.18, -29235.70, -28660.17, -36321.85, 114895.77, -29729.41, 0.000, 0.000, 0.000, 18:03:19.976
42, -28989.12, -33731.48, -28247.66, -29156.64, -28662.51, -36339.62, 114869.84, -30456.96, 0.000, 0.000, 0.000, 18:03:19.976
43, -28854.04, -33638.12, -28204.30, -29184.72, -28655.96, -36341.14, 114875.02, -30115.06, 0.000, 0.000, 0.000, 18:03:19.976
44, -28714.57, -33160.89, -28261.99, -29288.65, -28706.59, -36334.39, 114905.46, -29180.02, 0.034, 0.988, -0.016, 18:03:19.976
45, -28625.43, -32950.09, -28328.80, -29306.20, -28718.37, -36332.91, 114921.58, -29064.84, 0.000, 0.000, 0.000, 18:03:19.976
46, -28726.21, -33336.55, -28320.89, -29228.55, -28683.03, -36347.40, 114902.20, -29752.76, 0.000, 0.000, 0.000, 18:03:19.976
47, -28987.55, -33798.61, -28227.17, -29147.08, -28727.56, -36365.84, 114873.91, -30469.88, 0.000, 0.000, 0.000, 18:03:19.977
48, -28844.43, -33699.81, -28186.26, -29170.17, -28697.18, -36365.55, 114881.50, -30121.12, 0.000, 0.000, 0.000, 18:03:19.977
49, -28750.69, -33216.05, -28248.07, -29265.34, -28694.30, -36357.17, 114913.13, -29175.93, 0.000, 0.000, 0.000, 18:03:19.977
50, -28677.85, -32993.99, -28308.95, -29297.48, -28694.88, -36351.85, 114926.09, -29058.65, 0.000, 0.000, 0.000, 18:03:19.977
51, -28746.78, -33365.70, -28299.41, -29218.38, -28694.14, -36366.60, 114906.88, -29742.28, 0.000, 0.000, 0.000, 18:03:19.978
52, -28995.38, -33811.30, -28214.92, -29130.40, -28728.70, -36385.46, 114878.09, -30449.62, 0.000, 0.000, 0.000, 18:03:19.978
53, -28859.43, -33705.91, -28192.50, -29179.35, -28715.71, -36383.88, 114885.80, -30104.42, 0.000, 0.000, 0.000, 18:03:19.978
54, -28785.18, -33207.56, -28255.42, -29276.67, -28689.74, -36373.93, 114918.83, -29173.61, 0.038, 0.984, -0.026, 18:03:19.978
55, -28693.96, -32973.88, -28316.53, -29301.08, -28687.72, -36367.02, 114930.95, -29079.64, 0.000, 0.000, 0.000, 18:03:19.979
56, -28760.26, -33341.00, -28308.35, -29229.24, -28695.21, -36380.57, 114910.60, -29772.48, 0.000, 0.000, 0.000, 18:03:19.979
57, -29010.71, -33782.89, -28227.50, -29145.78, -28736.27, -36403.75, 114884.52, -30487.26, 0.000, 0.000, 0.000, 18:03:19.979
58, -28876.26, -33666.89, -28189.33, -29174.52, -28727.62, -36399.93, 114890.04, -30140.57, 0.000, 0.000, 0.000, 18:03:19.979
59, -28809.86, -33163.95, -28250.53, -29263.64, -28704.29, -36387.68, 114921.78, -29195.29, 0.000, 0.000, 0.000, 18:03:19.979
60, -28703.84, -32934.22, -28326.05, -29300.92, -28712.33, -36383.27, 114935.21, -29092.83, 0.000, 0.000, 0.000, 18:03:19.980
61, -28778.45, -33300.66, -28325.58, -29235.77, -28732.09, -36399.64, 114917.18, -29783.90, 0.000, 0.000, 0.000, 18:03:19.980
62, -29028.66, -33746.08, -28242.63, -29160.96, -28762.27, -36421.09, 114890.29, -30498.48, 0.000, 0.000, 0.000, 18:03:19.980
63, -28892.24, -33640.11, -28201.37, -29192.09, -28744.34, -36419.46, 114897.22, -30159.59, 0.000, 0.000, 0.000, 18:03:19.980
64, -28818.01, -33140.30, -28258.21, -29277.45, -28718.17, -36407.21, 114929.23, -29216.17, 0.036, 0.996, -0.026, 18:03:19.980
65, -28722.93, -32903.13, -28331.08, -29311.43, -28728.34, -36405.27, 114946.05, -29112.72, 0.000, 0.000, 0.000, 18:03:19.980
66, -28785.45, -33267.53, -28334.81, -29250.65, -28744.88, -36420.13, 114926.92, -29807.93, 0.000, 0.000, 0.000, 18:03:19.980
67, -29040.26, -33717.79, -28251.49, -29163.30, -28785.69, -36439.96, 114897.53, -30531.56, 0.000, 0.000, 0.000, 18:03:19.980
68, -28904.72, -33612.53, -28206.54, -29181.92, -28770.47, -36438.35, 114904.52, -30197.45, 0.000, 0.000, 0.000, 18:03:19.981
69, -28830.55, -33114.09, -28267.83, -29284.00, -28740.21, -36428.27, 114938.59, -29255.19, 0.000, 0.000, 0.000, 18:03:19.981
70, -28737.86, -32875.28, -28337.56, -29318.13, -28743.69, -36423.51, 114952.70, -29137.60, 0.000, 0.000, 0.000, 18:03:19.981
71, -28797.27, -33236.62, -28328.46, -29236.55, -28755.27, -36437.03, 114932.40, -29820.85, 0.000, 0.000, 0.000, 18:03:19.981
72, -29049.55, -33689.09, -28238.46, -29157.04, -28766.29, -36458.29, 114903.92, -30548.73, 0.000, 0.000, 0.000, 18:03:19.981
73, -28916.05, -33584.97, -28190.33, -29177.03, -28778.25, -36455.56, 114908.73, -30218.02, 0.000, 0.000, 0.000, 18:03:19.982
74, -28849.69, -33073.81, -28257.37, -29279.04, -28744.05, -36440.99, 114941.59, -29266.28, 0.038, 0.988, -0.024, 18:03:19.982
75, -28760.01, -32827.94, -28331.86, -29313.46, -28733.28, -36436.79, 114957.77, -29139.48, 0.000, 0.000, 0.000, 18:03:19.982
76, -28803.93, -33177.14, -28323.24, -29209.28, -28771.97, -36455.20, 114940.22, -29806.12, 0.000, 0.000, 0.000, 18:03:19.982
77, -29027.74, -33594.49, -28223.97, -28645.01, -28759.12, -36474.11, 114912.30, -30504.38, 0.000, 0.000, 0.000, 18:03:19.982
78, -28879.10, -33408.68, -28178.98, -28309.40, -28771.21, -36464.43, 114916.88, -30107.15, 0.000, 0.000, 0.000, 18:03:19.983
79, -28818.57, -32794.19, -28247.66, -28412.73, -28742.06, -36439.64, 114947.51, -29120.12, 0.000, 0.000, 0.000, 18:03:19.983
80, -28779.81, -32432.67, -28324.00, -28458.38, -28739.78, -36428.80, 114965.16, -29008.67, 0.000, 0.000, 0.000, 18:03:19.983
81, -28732.70, -32676.26, -28336.56, -28414.19, -28748.90, -36433.14, 114945.43, -29678.47, 0.000, 0.000, 0.000, 18:03:19.983
82, -28835.47, -33027.34, -28257.70, -28337.54, -28802.97, -36447.96, 114918.52, -30323.27, 0.000, 0.000, 0.000, 18:03:19.984
83, -28792.42, -32820.38, -28205.35, -28355.45, -28779.08, -36435.91, 114921.78, -29921.03, 0.038, 0.990, -0.026, 18:03:19.984
84, -28761.26, -32196.73, -28261.92, -28457.14, -28759.63, -36414.14, 114952.20, -28988.51, 0.000, 0.000, 0.000, 18:03:19.984
85, -28717.12, -31821.55, -28333.12, -28490.05, -28766.16, -36401.43, 114969.34, -28918.71, 0.000, 0.000, 0.000, 18:03:19.984
86, -28720.63, -32056.45, -28329.87, -28427.26, -28726.77, -36405.11, 114950.86, -29620.17, 0.000, 0.000, 0.000, 18:03:19.985
87, -28797.12, -32425.14, -28248.51, -28347.80, -28780.26, -36416.73, 114922.52, -30284.29, 0.000, 0.000, 0.000, 18:03:19.985
88, -28767.07, -32253.99, -28216.21, -28384.93, -28735.78, -36407.68, 114925.49, -29911.71, 0.000, 0.000, 0.000, 18:03:19.985
89, -28749.06, -31646.47, -28264.61, -28469.84, -28762.51, -36391.52, 114958.95, -28972.75, 0.000, 0.000, 0.000, 18:03:19.986
90, -28701.94, -31271.68, -28336.45, -28509.02, -28784.33, -36377.06, 114975.42, -28888.04, 0.000, 0.000, 0.000, 18:03:20.434
91, -28697.18, -31512.11, -28339.96, -28450.30, -28720.85, -36380.50, 114955.91, -29593.08, 0.000, 0.000, 0.000, 18:03:20.435
92, -28787.73, -31894.42, -28253.48, -28363.22, -28737.59, -36390.27, 114927.81, -30269.09, 0.000, 0.000, 0.000, 18:03:20.436
93, -28741.08, -31739.21, -28218.50, -28397.76, -28711.66, -36383.32, 114930.88, -29907.55, 0.032, 0.996, -0.024, 18:03:20.436
94, -28728.09, -31140.94, -28269.14, -28490.92, -28755.63, -36365.88, 114961.88, -28959.30, 0.000, 0.000, 0.000, 18:03:20.437
95, -28671.36, -30765.92, -28330.86, -28513.47, -28757.82, -36348.83, 114976.50, -28864.57, 0.000, 0.000, 0.000, 18:03:20.438
96, -28644.79, -31006.67, -28327.30, -28443.31, -28674.69, -36351.47, 114957.23, -29568.54, 0.000, 0.000, 0.000, 18:03:20.438
97, -28774.83, -31415.17, -28263.80, -28388.75, -28626.68, -36361.41, 114930.63, -30274.74, 0.000, 0.000, 0.000, 18:03:20.439
98, -28724.72, -31282.20, -28220.55, -28394.67, -28658.27, -36361.19, 114935.21, -29939.96, 0.000, 0.000, 0.000, 18:03:20.439
99, -28710.01, -30687.36, -28263.31, -28479.94, -28736.83, -36346.93, 114967.60, -28983.82, 0.000, 0.000, 0.000, 18:03:20.440
100, -28662.87, -30312.07, -28332.38, -28518.14, -28761.35, -36333.88, 114986.11, -28871.77, 0.000, 0.000, 0.000, 18:03:20.440
101, -28638.66, -30550.38, -28337.14, -28455.96, -28693.36, -36336.61, 114965.08, -29559.26, 0.000, 0.000, 0.000, 18:03:20.441
102, -28769.18, -30955.80, -28262.15, -28384.77, -28617.79, -36343.58, 114935.44, -30264.69, 0.000, 0.000, 0.000, 18:03:20.441
103, -28705.65, -30828.89, -28221.18, -28421.72, -28652.03, -36341.23, 114937.88, -29942.98, 0.030, 0.988, -0.030, 18:03:20.442
104, -28688.80, -30235.83, -28277.21, -28507.84, -28756.14, -36325.25, 114968.41, -28979.91, 0.000, 0.000, 0.000, 18:03:20.443
105, -28643.78, -29851.11, -28338.75, -28531.80, -28767.72, -36310.77, 114986.24, -28848.08, 0.000, 0.000, 0.000, 18:03:20.443
106, -28613.05, -30084.35, -28339.04, -28472.39, -28689.13, -36316.20, 114967.78, -29524.08, 0.000, 0.000, 0.000, 18:03:20.444
107, -28747.27, -30497.08, -28272.52, -28399.41, -28630.79, -36327.51, 114938.95, -30234.64, 0.000, 0.000, 0.000, 18:03:20.445
108, -28688.51, -30376.69, -28235.66, -28425.81, -28680.06, -36326.25, 114942.50, -29923.38, 0.000, 0.000, 0.000, 18:03:20.445
109, -28672.91, -29783.74, -28286.89, -28520.60, -28772.04, -36307.52, 114973.05, -28962.03, 0.000, 0.000, 0.000, 18:03:20.446
110, -28627.71, -29398.55, -28353.66, -28548.03, -28793.05, -36294.11, 114992.10, -28826.55, 0.000, 0.000, 0.000, 18:03:20.446
111, -28594.90, -29631.91, -28352.96, -28483.63, -28712.71, -36300.15, 114973.75, -29500.64, 0.000, 0.000, 0.000, 18:03:20.447
112, -28728.81, -30044.37, -28285.37, -28421.27, -28645.70, -36311.39, 114943.30, -30214.57, 0.000, 0.000, 0.000, 18:03:20.447
113, -28668.48, -29924.22, -28242.21, -28443.40, -28683.01, -36308.38, 114946.21, -29906.57, 0.036, 0.984, -0.030, 18:03:20.448
114, -28647.94, -29329.47, -28282.55, -28520.94, -28764.75, -36289.66, 114978.45, -28937.69, 0.000, 0.000, 0.000, 18:03:20.449
115, -28598.63, -28941.33, -28346.97, -28556.83, -28782.85, -36273.64, 114995.66, -28797.21, 0.000, 0.000, 0.000, 18:03:20.450
116, -28564.99, -29171.95, -28355.22, -28500.62, -28712.58, -36278.96, 114976.81, -29481.21, 0.000, 0.000, 0.000, 18:03:20.450
117, -28695.10, -29576.61, -28277.41, -28415.10, -28622.12, -36289.71, 114946.59, -30194.46, 0.000, 0.000, 0.000, 18:03:20.451
118, -28649.71, -29456.56, -28236.29, -28442.97, -28662.09, -36287.86, 114949.85, -29892.57, 0.000, 0.000, 0.000, 18:03:20.452
119, -28632.88, -28863.34, -28276.34, -28534.06, -28747.87, -36269.66, 114982.29, -28927.87, 0.000, 0.000, 0.000, 18:03:20.452
120, -28581.44, -28473.93, -28340.83, -28568.79, -28772.10, -36254.06, 115000.01, -28787.77, 0.000, 0.000, 0.000, 18:03:20.453
121, -28549.75, -28699.77, -28347.02, -28494.16, -28699.01, -36260.65, 114982.82, -29463.85, 0.000, 0.000, 0.000, 18:03:20.454
122, -28674.40, -29110.84, -28272.65, -28406.18, -28617.54, -36274.38, 114954.99, -30182.79, 0.000, 0.000, 0.000, 18:03:20.455
123, -28630.21, -28998.75, -28227.95, -28433.52, -28655.85, -36271.23, 114957.34, -29888.91, 0.036, 0.986, -0.034, 18:03:20.456
124, -28610.39, -28353.23, -28285.77, -28537.23, -28768.50, -36251.11, 114987.90, -28912.40, 0.000, 0.000, 0.000, 18:03:20.456
125, -28535.71, -28150.23, -28352.87, -28573.15, -28794.25, -36232.38, 115005.13, -28732.36, 0.000, 0.000, 0.000, 18:03:20.457
126, -28542.75, -28996.27, -28349.99, -28503.64, -28711.80, -36234.90, 114986.38, -29388.21, 0.000, 0.000, 0.000, 18:03:20.458
127, -28616.27, -29606.16, -28281.64, -28422.72, -28646.62, -36248.20, 114956.90, -30114.24, 0.000, 0.000, 0.000, 18:03:20.459
128, -28598.23, -29502.29, -28232.85, -28441.12, -28674.69, -36246.64, 114960.98, -29830.44, 0.000, 0.000, 0.000, 18:03:20.460
129, -28589.27, -28913.25, -28276.39, -28529.03, -28769.02, -36228.24, 114993.89, -28869.40, 0.000, 0.000, 0.000, 18:03:20.461
130, -28542.26, -28521.99, -28352.70, -28578.22, -28799.55, -36214.09, 115013.47, -28724.47, 0.000, 0.000, 0.000, 18:03:20.462
131, -28532.09, -28742.15, -28359.67, -28525.90, -28727.29, -36216.24, 114992.28, -29404.68, 0.000, 0.000, 0.000, 18:03:20.463
132, -28643.49, -29153.09, -28277.55, -28431.37, -28630.35, -36231.37, 114964.80, -30128.43, 0.032, 0.988, -0.032, 18:03:20.464
133, -28591.30, -29047.12, -28227.46, -28440.31, -28658.91, -36229.74, 114968.52, -29845.26, 0.000, 0.000, 0.000, 18:03:20.465
134, -28569.82, -28405.24, -28280.90, -28539.36, -28762.49, -36210.43, 115000.55, -28879.50, 0.000, 0.000, 0.000, 18:03:20.466
135, -28497.89, -28117.69, -28343.33, -28571.99, -28777.06, -36191.92, 115018.52, -28701.40, 0.000, 0.000, 0.000, 18:03:20.467
136, -28483.14, -28933.37, -28339.98, -28499.99, -28697.69, -36194.31, 115000.46, -29358.84, 0.000, 0.000, 0.000, 18:03:20.468
137, -28558.26, -29552.49, -28273.21, -28429.65, -28622.91, -36205.82, 114969.01, -30084.66, 0.000, 0.000, 0.000, 18:03:20.471
138, -28545.72, -29447.86, -28229.47, -28450.69, -28657.01, -36204.30, 114972.30, -29810.68, 0.000, 0.000, 0.000, 18:03:20.471
139, -28535.89, -28850.56, -28268.38, -28523.73, -28752.25, -36187.70, 115006.83, -28847.92, 0.000, 0.000, 0.000, 18:03:20.471
140, -28479.00, -28439.51, -28338.61, -28565.48, -28779.37, -36169.17, 115022.54, -28683.90, 0.000, 0.000, 0.000, 18:03:20.472
141, -28464.03, -28644.52, -28352.00, -28518.52, -28705.56, -36173.10, 115003.37, -29343.97, 0.000, 0.000, 0.000, 18:03:20.472
142, -28579.83, -29052.48, -28277.84, -28434.41, -28625.12, -36188.21, 114975.16, -30071.83, 0.026, 0.996, -0.034, 18:03:20.472
143, -28540.47, -28943.05, -28215.14, -28428.78, -28640.05, -36185.21, 114977.23, -29800.82, 0.000, 0.000, 0.000, 18:03:20.473
144, -28522.55, -28296.48, -28272.68, -28535.06, -28750.04, -36167.56, 115010.70, -28832.05, 0.000, 0.000, 0.000, 18:03:20.473
145, -28439.64, -28060.87, -28343.49, -28572.93, -28779.63, -36147.20, 115027.23, -28635.47, 0.000, 0.000, 0.000, 18:03:20.473
146, -28435.51, -28883.62, -28344.04, -28508.06, -28700.35, -36146.28, 115006.29, -29283.04, 0.000, 0.000, 0.000, 18:03:20.474
147, -28509.31, -29487.11, -28275.87, -28431.98, -28625.39, -36161.30, 114978.17, -30017.21, 0.000, 0.000, 0.000, 18:03:20.474
148, -28503.73, -29387.71, -28231.97, -28449.95, -28661.55, -36160.27, 114981.23, -29762.33, 0.000, 0.000, 0.000, 18:03:20.474
149, -28506.27, -28802.79, -28288.99, -28552.95, -28778.59, -36142.64, 115013.76, -28802.68, 0.000, 0.000, 0.000, 18:03:20.475
150, -28447.11, -28391.54, -28356.79, -28591.72, -28807.66, -36125.96, 115032.00, -28624.94, 0.000, 0.000, 0.000, 18:03:20.475
151, -28425.56, -28597.07, -28362.26, -28531.55, -28732.74, -36132.55, 115016.30, -29283.71, 0.000, 0.000, 0.000, 18:03:20.475
152, -28544.85, -29016.38, -28294.13, -28456.72, -28657.86, -36147.73, 114987.72, -30022.59, 0.028, 0.986, -0.032, 18:03:20.475
153, -28507.79, -28929.57, -28252.29, -28480.41, -28692.42, -36146.14, 114989.69, -29778.31, 0.000, 0.000, 0.000, 18:03:20.476
154, -28489.46, -28289.46, -28301.26, -28581.49, -28802.23, -36128.55, 115022.92, -28812.07, 0.000, 0.000, 0.000, 18:03:20.476
155, -28407.77, -28016.82, -28352.54, -28600.82, -28816.11, -36107.41, 115039.80, -28600.87, 0.000, 0.000, 0.000, 18:03:20.476
156, -28408.66, -28826.64, -28351.71, -28528.00, -28726.10, -36107.05, 115020.46, -29245.58, 0.000, 0.000, 0.000, 18:03:20.476
157, -28479.72, -29455.22, -28289.13, -28454.06, -28649.86, -36122.14, 114991.88, -29991.30, 0.000, 0.000, 0.000, 18:03:20.476
158, -28463.04, -29369.19, -28234.19, -28467.05, -28669.69, -36119.66, 114992.77, -29749.05, 0.000, 0.000, 0.000, 18:03:20.477
159, -28460.63, -28781.63, -28284.52, -28567.14, -28771.32, -36098.87, 115022.63, -28783.99, 0.000, 0.000, 0.000, 18:03:20.477
160, -28408.37, -28359.04, -28362.82, -28613.34, -28802.43, -36085.35, 115044.89, -28589.27, 0.000, 0.000, 0.000, 18:03:20.477
161, -28389.93, -28548.54, -28363.11, -28542.93, -28716.63, -36087.98, 115026.39, -29231.88, 0.000, 0.000, 0.000, 18:03:20.477
162, -28500.08, -28962.09, -28281.88, -28453.59, -28623.64, -36101.48, 114996.57, -29971.25, 0.034, 0.984, -0.034, 18:03:20.477
163, -28464.39, -28873.78, -28231.68, -28465.26, -28652.01, -36102.18, 115000.52, -29734.93, 0.000, 0.000, 0.000, 18:03:20.478
164, -28445.70, -28232.62, -28285.33, -28558.17, -28760.73, -36079.87, 115029.12, -28767.30, 0.000, 0.000, 0.000, 18:03:20.478
165, -28368.41, -27968.67, -28353.05, -28598.99, -28789.02, -36061.16, 115048.49, -28549.19, 0.000, 0.000, 0.000, 18:03:20.478
166, -28374.87, -28787.55, -28364.23, -28550.22, -28721.39, -36064.25, 115032.20, -29178.59, 0.000, 0.000, 0.000, 18:03:20.478
167, -28442.57, -29411.14, -28287.67, -28453.05, -28636.36, -36076.74, 115001.45, -29918.61, 0.000, 0.000, 0.000, 18:03:20.478
168, -28406.63, -29327.19, -28230.90, -28465.77, -28657.04, -36073.30, 115001.02, -29689.20, 0.000, 0.000, 0.000, 18:03:20.479
169, -28397.15, -28742.33, -28279.67, -28555.02, -28757.28, -36054.05, 115032.04, -28728.34, 0.000, 0.000, 0.000, 18:03:20.479
170, -28352.16, -28321.96, -28356.41, -28604.89, -28793.79, -36039.41, 115053.45, -28531.73, 0.000, 0.000, 0.000, 18:03:20.479
171, -28337.23, -28513.94, -28371.74, -28557.62, -28728.45, -36043.86, 115036.73, -29183.58, 0.000, 0.000, 0.000, 18:03:20.479
172, -28453.88, -28933.19, -28304.13, -28477.39, -28646.31, -36058.55, 115007.32, -29931.18, 0.036, 0.984, -0.034, 18:03:20.480
173, -28407.77, -28855.92, -28259.00, -28496.17, -28670.27, -36056.25, 115007.14, -29713.78, 0.000, 0.000, 0.000, 18:03:20.480
174, -28384.05, -28225.80, -28307.84, -28593.22, -28770.70, -36036.78, 115037.80, -28745.48, 0.000, 0.000, 0.000, 18:03:20.480
175, -28313.04, -27917.19, -28368.59, -28626.79, -28794.19, -36019.77, 115059.58, -28511.53, 0.000, 0.000, 0.000, 18:03:20.480
176, -28307.57, -28712.92, -28375.16, -28572.19, -28715.60, -36021.22, 115043.11, -29138.25, 0.000, 0.000, 0.000, 18:03:20.480
177, -28375.49, -29351.06, -28308.19, -28496.66, -28630.88, -36033.94, 115012.10, -29884.59, 0.000, 0.000, 0.000, 18:03:20.481
178, -28364.83, -29280.74, -28269.84, -28524.71, -28671.39, -36034.09, 115013.83, -29675.43, 0.000, 0.000, 0.000, 18:03:20.481
179, -28357.10, -28688.51, -28305.40, -28599.75, -28765.35, -36014.74, 115044.85, -28713.25, 0.000, 0.000, 0.000, 18:03:20.481
180, -28295.45, -28245.27, -28354.21, -28627.53, -28768.10, -35995.23, 115062.77, -28502.92, 0.000, 0.000, 0.000, 18:03:20.481
181, -28288.61, -28429.03, -28370.51, -28581.82, -28708.71, -36001.11, 115047.91, -29152.73, 0.034, 0.990, -0.032, 18:03:20.481
182, -28399.86, -28850.11, -28300.86, -28492.44, -28622.03, -36015.50, 115017.98, -29909.67, 0.000, 0.000, 0.000, 18:03:20.482
183, -28364.41, -28780.28, -28243.87, -28495.41, -28646.35, -36013.38, 115017.52, -29703.21, 0.000, 0.000, 0.000, 18:03:20.482
184, -28340.09, -28141.31, -28283.38, -28587.41, -28744.77, -35994.91, 115049.45, -28717.99, 0.000, 0.000, 0.000, 18:03:20.482
185, -28255.64, -27872.22, -28343.22, -28621.01, -28771.97, -35977.46, 115071.60, -28455.27, 0.000, 0.000, 0.000, 18:03:20.482
186, -28285.15, -28677.89, -28348.54, -28560.77, -28696.58, -35977.97, 115054.91, -29069.29, 0.000, 0.000, 0.000, 18:03:20.482
187, -28338.68, -29315.59, -28275.56, -28471.90, -28610.21, -35990.42, 115023.98, -29818.66, 0.000, 0.000, 0.000, 18:03:20.483
188, -28322.16, -29250.52, -28220.93, -28476.88, -28633.92, -35987.25, 115021.96, -29620.40, 0.000, 0.000, 0.000, 18:03:20.483
189, -28318.86, -28670.47, -28271.94, -28569.48, -28730.86, -35967.89, 115052.31, -28671.52, 0.000, 0.000, 0.000, 18:03:20.483
190, -28260.40, -28233.98, -28350.28, -28617.85, -28758.67, -35950.57, 115072.12, -28456.83, 0.000, 0.000, 0.000, 18:03:20.483
191, -28250.75, -28414.70, -28377.88, -28573.96, -28705.99, -35957.12, 115058.26, -29091.64, 0.030, 0.980, -0.034, 18:03:20.484
192, -28368.70, -28842.89, -28325.11, -28505.04, -28638.87, -35971.91, 115028.20, -29853.99, 0.000, 0.000, 0.000, 18:03:20.484
193, -28332.11, -28779.97, -28279.54, -28520.00, -28670.49, -35969.99, 115027.21, -29662.82, 0.000, 0.000, 0.000, 18:03:20.484
194, -28309.76, -28150.61, -28322.65, -28617.90, -28764.06, -35949.81, 115057.19, -28684.46, 0.000, 0.000, 0.000, 18:03:20.484
195, -28227.91, -27827.45, -28382.29, -28647.02, -28790.65, -35927.68, 115074.96, -28412.89, 0.000, 0.000, 0.000, 18:03:20.484
196, -28214.56, -28613.90, -28398.31, -28602.68, -28720.20, -35929.22, 115059.47, -29019.13, 0.000, 0.000, 0.000, 18:03:20.485
197, -28285.10, -29257.16, -28325.87, -28511.97, -28624.96, -35945.52, 115032.04, -29775.00, 0.000, 0.000, 0.000, 18:03:20.485
198, -28275.94, -29194.60, -28264.74, -28509.52, -28641.12, -35943.30, 115030.63, -29590.45, 0.000, 0.000, 0.000, 18:03:20.485
199, -28269.21, -28608.96, -28304.28, -28596.35, -28742.60, -35922.40, 115059.80, -28624.04, 0.000, 0.000, 0.000, 18:03:20.485
200, -28209.85, -28161.14, -28371.00, -28641.50, -28775.72, -35905.10, 115080.63, -28382.71, 0.000, 0.000, 0.000, 18:03:20.486
201, -28209.49, -28324.11, -28374.46, -28583.72, -28692.49, -35908.61, 115065.39, -29010.15, 0.034, 0.984, -0.034, 18:03:20.486
202, -28307.32, -28747.72, -28297.17, -28495.37, -28600.98, -35923.61, 115036.27, -29769.86, 0.000, 0.000, 0.000, 18:03:20.486
203, -28273.44, -28695.15, -28245.32, -28504.37, -28620.67, -35925.31, 115038.19, -29592.75, 0.000, 0.000, 0.000, 18:03:20.486
204, -28249.18, -28063.31, -28288.19, -28597.65, -28720.29, -35907.88, 115070.62, -28618.50, 0.000, 0.000, 0.000, 18:03:20.487
205, -28163.94, -27763.28, -28345.36, -28629.81, -28744.61, -35887.73, 115091.30, -28345.86, 0.000, 0.000, 0.000, 18:03:20.487
206, -28169.66, -28554.67, -28342.59, -28567.56, -28660.21, -35884.79, 115072.43, -28965.78, 0.000, 0.000, 0.000, 18:03:20.487
207, -28236.15, -29222.20, -28280.07, -28489.91, -28583.52, -35899.14, 115042.55, -29732.83, 0.000, 0.000, 0.000, 18:03:20.488
208, -28233.05, -29172.02, -28220.06, -28484.82, -28601.49, -35899.61, 115043.17, -29560.61, 0.000, 0.000, 0.000, 18:03:20.488
209, -28233.92, -28598.30, -28267.29, -28583.25, -28702.46, -35882.06, 115075.02, -28600.93, 0.000, 0.000, 0.000, 18:03:20.488
210, -28169.01, -28153.54, -28345.27, -28631.49, -28739.89, -35864.58, 115095.92, -28356.18, 0.000, 0.000, 0.000, 18:03:20.913
211, -28146.95, -28320.42, -28368.92, -28593.78, -28676.88, -35867.44, 115079.96, -28984.38, 0.034, 0.984, -0.032, 18:03:20.913
212, -28266.46, -28751.23, -28309.73, -28518.86, -28597.51, -35881.72, 115049.25, -29756.41, 0.000, 0.000, 0.000, 18:03:20.913
213, -28247.17, -28712.36, -28264.90, -28524.00, -28628.92, -35879.71, 115046.26, -29603.34, 0.000, 0.000, 0.000, 18:03:20.913
214, -28234.54, -28103.94, -28307.63, -28611.53, -28727.82, -35862.86, 115078.49, -28633.05, 0.000, 0.000, 0.000, 18:03:20.914
215, -28155.96, -27748.04, -28367.83, -28653.35, -28759.92, -35844.24, 115100.17, -28342.28, 0.000, 0.000, 0.000, 18:03:20.914
216, -28133.58, -28514.88, -28371.85, -28595.32, -28680.51, -35843.30, 115083.67, -28922.64, 0.000, 0.000, 0.000, 18:03:20.914
217, -28208.50, -29185.72, -28303.59, -28509.69, -28593.51, -35856.82, 115052.90, -29686.18, 0.000, 0.000, 0.000, 18:03:20.915
218, -28194.87, -29152.28, -28247.08, -28515.39, -28610.77, -35857.07, 115051.98, -29537.58, 0.000, 0.000, 0.000, 18:03:20.915
219, -28188.83, -28581.91, -28286.42, -28603.84, -28712.56, -35839.19, 115082.78, -28575.34, 0.000, 0.000, 0.000, 18:03:20.915
220, -28134.79, -28125.62, -28356.81, -28650.15, -28752.63, -35822.40, 115104.75, -28304.95, 0.000, 0.000, 0.000, 18:03:20.915
221, -28128.87, -28278.71, -28365.75, -28600.49, -28679.72, -35825.33, 115089.89, -28911.69, 0.042, 0.982, -0.036, 18:03:20.915
222, -28232.91, -28708.00, -28296.01, -28510.72, -28585.49, -35839.14, 115058.91, -29686.38, 0.000, 0.000, 0.000, 18:03:20.916
223, -28201.42, -28671.28, -28237.11, -28504.55, -28597.58, -35839.66, 115057.97, -29543.30, 0.000, 0.000, 0.000, 18:03:20.916
224, -28176.90, -28059.08, -28276.48, -28594.47, -28691.59, -35821.66, 115089.15, -28572.95, 0.000, 0.000, 0.000, 18:03:20.916
225, -28097.75, -27686.01, -28341.88, -28641.39, -28726.28, -35802.40, 115111.01, -28275.71, 0.000, 0.000, 0.000, 18:03:20.916
226, -28106.51, -28441.74, -28349.41, -28589.13, -28654.87, -35801.01, 115094.76, -28872.42, 0.000, 0.000, 0.000, 18:03:20.917
227, -28165.21, -29123.85, -28278.71, -28500.62, -28566.29, -35813.26, 115062.93, -29643.42, 0.000, 0.000, 0.000, 18:03:20.917
228, -28150.50, -29091.31, -28213.53, -28495.05, -28576.57, -35812.50, 115060.49, -29507.30, 0.000, 0.000, 0.000, 18:03:20.917
229, -28151.53, -28525.27, -28257.41, -28586.43, -28683.97, -35796.14, 115092.44, -28547.63, 0.000, 0.000, 0.000, 18:03:20.917
230, -28099.03, -28070.24, -28337.00, -28639.69, -28732.83, -35779.20, 115114.41, -28265.84, 0.034, 0.990, -0.030, 18:03:20.917
231, -28090.11, -28218.38, -28353.70, -28592.28, -28658.89, -35783.60, 115101.66, -28862.02, 0.000, 0.000, 0.000, 18:03:20.917
232, -28195.63, -28648.25, -28286.82, -28505.60, -28572.81, -35797.95, 115071.11, -29636.02, 0.000, 0.000, 0.000, 18:03:20.918
233, -28163.29, -28622.08, -28235.75, -28507.03, -28594.07, -35796.14, 115067.07, -29508.08, 0.000, 0.000, 0.000, 18:03:20.918
234, -28141.00, -28019.97, -28283.27, -28599.86, -28700.13, -35778.55, 115097.94, -28545.79, 0.000, 0.000, 0.000, 18:03:20.918
235, -28068.56, -27648.19, -28348.13, -28646.02, -28738.82, -35760.20, 115121.27, -28239.73, 0.000, 0.000, 0.000, 18:03:20.918
236, -28061.97, -28403.05, -28362.66, -28597.47, -28667.63, -35759.46, 115106.14, -28826.17, 0.000, 0.000, 0.000, 18:03:20.918
237, -28130.16, -29092.45, -28300.71, -28505.69, -28577.46, -35774.37, 115076.59, -29601.78, 0.000, 0.000, 0.000, 18:03:20.919
238, -28117.76, -29076.00, -28245.27, -28512.46, -28591.50, -35774.23, 115073.68, -29484.56, 0.000, 0.000, 0.000, 18:03:20.919
239, -28116.39, -28516.67, -28283.31, -28604.40, -28689.92, -35755.55, 115103.08, -28517.38, 0.000, 0.000, 0.000, 18:03:20.919
240, -28063.24, -28057.79, -28355.89, -28650.96, -28731.20, -35738.27, 115125.59, -28216.86, 0.034, 0.986, -0.030, 18:03:20.920
241, -28038.14, -28202.83, -28370.20, -28595.08, -28663.36, -35741.13, 115111.77, -28817.37, 0.000, 0.000, 0.000, 18:03:20.920
242, -28154.97, -28639.09, -28301.02, -28503.93, -28574.45, -35756.46, 115081.77, -29604.42, 0.000, 0.000, 0.000, 18:03:20.920
243, -28123.12, -28622.88, -28241.70, -28507.08, -28588.71, -35755.55, 115077.64, -29496.84, 0.000, 0.000, 0.000, 18:03:20.920
244, -28094.44, -28029.73, -28275.40, -28595.90, -28679.57, -35736.39, 115106.36, -28533.95, 0.000, 0.000, 0.000, 18:03:20.921
245, -28029.69, -27628.19, -28332.09, -28636.14, -28711.78, -35717.08, 115128.38, -28212.51, 0.000, 0.000, 0.000, 18:03:20.921
246, -28033.56, -28363.20, -28337.67, -28576.35, -28635.91, -35718.36, 115115.68, -28778.23, 0.000, 0.000, 0.000, 18:03:20.921
247, -28100.25, -29057.47, -28273.41, -28490.56, -28547.76, -35734.87, 115087.38, -29559.94, 0.000, 0.000, 0.000, 18:03:20.921
248, -28082.53, -29046.22, -28220.08, -28496.57, -28562.38, -35734.47, 115083.43, -29457.74, 0.000, 0.000, 0.000, 18:03:20.921
249, -28072.72, -28486.43, -28260.00, -28587.30, -28660.39, -35713.88, 115110.70, -28491.19, 0.000, 0.000, 0.000, 18:03:20.921
250, -28022.47, -28021.62, -28345.12, -28642.31, -28712.69, -35697.23, 115134.05, -28185.79, 0.030, 0.984, -0.030, 18:03:20.922
251, -28001.33, -28158.64, -28365.68, -28592.08, -28654.11, -35699.51, 115120.11, -28790.07, 0.000, 0.000, 0.000, 18:03:20.922
252, -28108.39, -28592.60, -28292.37, -28503.59, -28561.91, -35712.66, 115088.23, -29577.21, 0.000, 0.000, 0.000, 18:03:20.922
253, -28078.08, -28580.97, -28227.50, -28499.75, -28566.09, -35713.39, 115085.28, -29479.31, 0.000, 0.000, 0.000, 18:03:20.922
254, -28050.79, -27990.44, -28267.51, -28588.66, -28671.03, -35696.11, 115115.59, -28507.55, 0.000, 0.000, 0.000, 18:03:20.922
255, -27979.06, -27582.68, -28333.72, -28635.02, -28710.61, -35679.26, 115140.67, -28162.33, 0.000, 0.000, 0.000, 18:03:20.922
0, -27974.46, -28304.66, -28347.64, -28596.62, -28640.23, -35679.33, 115127.53, -28727.02, 0.000, 0.000, 0.000, 18:03:20.922
1, -28039.10, -28994.37, -28289.22, -28515.95, -28558.62, -35692.98, 115096.52, -29510.38, 0.000, 0.000, 0.000, 18:03:20.922
2, -28035.17, -28988.74, -28229.45, -28505.92, -28572.73, -35693.19, 115092.55, -29425.00, 0.000, 0.000, 0.000, 18:03:20.922
3, -28040.84, -28430.35, -28269.64, -28595.35, -28673.71, -35675.20, 115122.05, -28458.84, 0.000, 0.000, 0.000, 18:03:20.923
4, -27982.01, -27955.88, -28337.59, -28645.59, -28711.75, -35658.00, 115145.59, -28134.14, 0.032, 0.984, -0.032, 18:03:20.923
5, -27949.60, -28088.74, -28354.82, -28600.22, -28646.58, -35659.55, 115131.66, -28730.57, 0.000, 0.000, 0.000, 18:03:20.923
6, -28068.11, -28527.60, -28290.20, -28507.95, -28566.69, -35672.09, 115098.90, -29523.84, 0.000, 0.000, 0.000, 18:03:20.923
7, -28041.42, -28526.21, -28238.39, -28509.29, -28587.39, -35674.30, 115096.46, -29442.03, 0.000, 0.000, 0.000, 18:03:20.923
8, -28010.54, -27938.56, -28274.46, -28599.35, -28676.91, -35656.84, 115126.52, -28474.71, 0.000, 0.000, 0.000, 18:03:20.924
9, -27940.48, -27522.26, -28327.04, -28635.80, -28700.00, -35636.88, 115149.68, -28117.80, 0.000, 0.000, 0.000, 18:03:20.924
10, -27918.09, -28244.56, -28335.48, -28584.46, -28635.40, -35635.92, 115136.40, -28683.68, 0.000, 0.000, 0.000, 18:03:20.924
11, -27988.43, -28955.59, -28264.67, -28495.39, -28537.99, -35650.47, 115106.41, -29475.00, 0.000, 0.000, 0.000, 18:03:20.924
12, -27996.97, -28969.29, -28202.42, -28494.79, -28542.42, -35653.24, 115103.95, -29409.11, 0.000, 0.000, 0.000, 18:03:20.924
13, -28008.17, -28423.75, -28242.88, -28579.86, -28644.10, -35636.19, 115133.63, -28451.94, 0.000, 0.000, 0.000, 18:03:20.924
14, -27948.11, -27950.10, -28322.63, -28633.46, -28691.84, -35617.41, 115155.73, -28119.54, 0.030, 0.988, -0.030, 18:03:20.924
15, -27909.48, -28075.04, -28346.12, -28589.71, -28627.82, -35617.77, 115141.38, -28700.80, 0.000, 0.000, 0.000, 18:03:20.925
16, -28030.36, -28516.09, -28281.82, -28504.08, -28540.58, -35631.09, 115109.11, -29499.43, 0.000, 0.000, 0.000, 18:03:20.925
17, -28006.64, -28521.65, -28214.88, -28499.35, -28546.35, -35633.17, 115105.91, -29432.93, 0.000, 0.000, 0.000, 18:03:20.925
18, -27980.43, -27942.85, -28255.11, -28594.12, -28650.98, -35617.55, 115137.20, -28461.23, 0.000, 0.000, 0.000, 18:03:20.925
19, -27915.43, -27497.72, -28319.64, -28642.96, -28683.34, -35597.95, 115160.50, -28089.86, 0.000, 0.000, 0.000, 18:03:20.925
20, -27891.67, -28192.48, -28328.87, -28586.63, -28607.93, -35596.87, 115147.38, -28650.85, 0.000, 0.000, 0.000, 18:03:20.925
21, -27966.50, -28906.15, -28266.44, -28500.64, -28518.32, -35610.57, 115115.86, -29450.14, 0.000, 0.000, 0.000, 18:03:20.925
22, -27956.53, -28920.41, -28204.39, -28487.61, -28533.30, -35611.71, 115111.23, -29393.19, 0.000, 0.000, 0.000, 18:03:20.930
23, -27951.06, -28372.90, -28243.28, -28578.54, -28640.12, -35592.38, 115138.59, -28427.33, 0.030, 0.990, -0.034, 18:03:20.930
24, -27897.64, -27891.65, -28322.23, -28636.52, -28691.70, -35576.36, 115163.76, -28073.59, 0.000, 0.000, 0.000, 18:03:20.930
25, -27855.62, -28007.38, -28346.95, -28596.98, -28632.94, -35577.65, 115150.55, -28647.80, 0.000, 0.000, 0.000, 18:03:20.930
26, -27978.59, -28444.05, -28284.39, -28511.97, -28543.94, -35591.55, 115118.43, -29448.71, 0.000, 0.000, 0.000, 18:03:20.930
27, -27963.13, -28453.66, -28223.68, -28504.15, -28552.97, -35591.22, 115111.84, -29397.93, 0.000, 0.000, 0.000, 18:03:20.930
28, -27941.00, -27873.65, -28268.92, -28602.97, -28654.18, -35576.42, 115143.35, -28437.72, 0.000, 0.000, 0.000, 18:03:20.931
29, -27870.86, -27450.67, -28335.66, -28650.55, -28696.00, -35556.93, 115167.18, -28053.72, 0.000, 0.000, 0.000, 18:03:20.931
30, -27840.82, -28162.86, -28348.63, -28599.41, -28627.87, -35556.24, 115155.13, -28583.77, 0.000, 0.000, 0.000, 18:03:20.931
31, -27913.88, -28877.20, -28288.86, -28514.52, -28542.66, -35571.26, 115125.09, -29375.42, 0.000, 0.000, 0.000, 18:03:20.931
32, -27919.56, -28898.81, -28227.21, -28507.84, -28551.34, -35574.45, 115121.83, -29330.99, 0.000, 0.000, 0.000, 18:03:20.931
33, -27916.19, -28349.61, -28255.78, -28591.66, -28647.31, -35557.80, 115152.07, -28373.62, 0.030, 0.992, -0.036, 18:03:20.931
34, -27853.07, -27854.83, -28324.82, -28646.33, -28691.68, -35538.13, 115174.71, -28016.21, 0.000, 0.000, 0.000, 18:03:20.932
35, -27838.36, -27953.56, -28344.98, -28594.52, -28624.25, -35537.28, 115160.72, -28589.15, 0.000, 0.000, 0.000, 18:03:20.932
36, -27936.64, -28382.06, -28271.16, -28495.79, -28522.79, -35551.23, 115129.38, -29393.55, 0.000, 0.000, 0.000, 18:03:20.932
37, -27930.22, -28393.06, -28214.23, -28496.33, -28536.38, -35554.14, 115125.54, -29357.36, 0.000, 0.000, 0.000, 18:03:20.932
38, -27908.77, -27795.89, -28244.24, -28583.34, -28625.12, -35537.53, 115155.71, -28386.29, 0.000, 0.000, 0.000, 18:03:20.932
39, -27822.65, -27362.65, -28308.28, -28631.04, -28667.36, -35515.18, 115177.71, -27988.09, 0.000, 0.000, 0.000, 18:03:20.932
40, -27816.86, -28060.31, -28319.86, -28575.86, -28599.19, -35513.16, 115165.66, -28534.08, 0.000, 0.000, 0.000, 18:03:20.932
41, -27871.82, -28790.90, -28267.74, -28499.23, -28514.75, -35526.80, 115134.63, -29334.56, 0.000, 0.000, 0.000, 18:03:20.933
42, -27875.78, -28811.44, -28211.57, -28491.59, -28520.27, -35528.34, 115129.27, -29305.73, 0.000, 0.000, 0.000, 18:03:20.933
43, -27880.13, -28262.44, -28249.07, -28578.34, -28616.02, -35511.71, 115158.64, -28353.46, 0.022, 0.990, -0.038, 18:03:20.933
44, -27819.29, -27762.86, -28322.23, -28636.52, -28656.54, -35493.99, 115183.14, -27982.19, 0.000, 0.000, 0.000, 18:03:20.933
45, -27805.39, -27858.21, -28340.89, -28591.39, -28595.30, -35495.17, 115171.30, -28530.37, 0.000, 0.000, 0.000, 18:03:20.933
46, -27909.21, -28293.57, -28280.81, -28507.03, -28506.32, -35511.18, 115141.61, -29336.42, 0.000, 0.000, 0.000, 18:03:20.933
47, -27889.75, -28317.58, -28228.04, -28513.54, -28527.46, -35513.05, 115135.59, -29320.73, 0.000, 0.000, 0.000, 18:03:20.933
48, -27845.80, -27725.37, -28267.56, -28592.24, -28636.88, -35494.99, 115163.47, -28362.33, 0.000, 0.000, 0.000, 18:03:20.934
49, -27777.72, -27326.59, -28342.55, -28651.27, -28694.41, -35474.18, 115187.25, -27953.22, 0.000, 0.000, 0.000, 18:03:20.934
50, -27759.01, -28040.80, -28356.27, -28602.39, -28625.56, -35471.99, 115175.49, -28484.48, 0.000, 0.000, 0.000, 18:03:20.934
51, -27820.97, -28763.88, -28292.30, -28517.94, -28532.47, -35486.41, 115144.70, -29290.84, 0.000, 0.000, 0.000, 18:03:20.934
52, -27829.69, -28802.01, -28238.43, -28517.67, -28556.43, -35488.63, 115138.59, -29284.58, 0.000, 0.000, 0.000, 18:03:20.934
53, -27834.31, -28260.18, -28273.21, -28602.88, -28660.37, -35473.27, 115168.81, -28329.29, 0.030, 0.986, -0.038, 18:03:20.934
54, -27774.88, -27756.46, -28347.29, -28662.83, -28710.05, -35456.14, 115194.43, -27933.29, 0.000, 0.000, 0.000, 18:03:20.935
55, -27739.32, -27843.95, -28367.78, -28620.98, -28648.68, -35455.92, 115182.13, -28478.96, 0.000, 0.000, 0.000, 18:03:20.935
56, -27849.58, -28281.06, -28307.68, -28532.11, -28566.47, -35470.32, 115150.69, -29288.90, 0.000, 0.000, 0.000, 18:03:20.935
57, -27839.90, -28309.22, -28249.52, -28531.46, -28572.77, -35472.24, 115144.13, -29282.59, 0.000, 0.000, 0.000, 18:03:20.935
58, -27803.04, -27724.01, -28276.01, -28614.68, -28661.69, -35455.01, 115172.95, -28323.71, 0.000, 0.000, 0.000, 18:03:20.935
59, -27724.59, -27288.51, -28341.09, -28668.86, -28701.76, -35434.24, 115197.49, -27903.45, 0.000, 0.000, 0.000, 18:03:20.935
60, -27740.57, -27982.68, -28357.41, -28627.98, -28636.63, -35431.70, 115185.80, -28422.61, 0.000, 0.000, 0.000, 18:03:20.936
61, -27790.50, -28719.69, -28300.32, -28532.43, -28550.82, -35445.95, 115155.16, -29227.65, 0.000, 0.000, 0.000, 18:03:20.936
62, -27789.05, -28756.39, -28234.34, -28513.61, -28550.51, -35447.68, 115148.61, -29229.91, 0.000, 0.000, 0.000, 18:03:20.936
63, -27793.21, -28218.88, -28275.60, -28611.37, -28654.38, -35431.16, 115177.51, -28281.08, 0.028, 0.992, -0.040, 18:03:20.937
64, -27736.77, -27711.20, -28354.46, -28672.62, -28709.05, -35412.43, 115202.32, -27878.99, 0.000, 0.000, 0.000, 18:03:20.937
65, -27724.46, -27789.16, -28377.53, -28632.27, -28651.76, -35413.48, 115191.97, -28428.78, 0.000, 0.000, 0.000, 18:03:20.937
66, -27821.01, -28224.44, -28315.57, -28542.01, -28563.72, -35426.51, 115159.42, -29244.06, 0.000, 0.000, 0.000, 18:03:20.938
67, -27810.93, -28266.82, -28257.66, -28537.01, -28572.73, -35429.32, 115153.19, -29260.15, 0.000, 0.000, 0.000, 18:03:20.938
68, -27773.43, -27697.74, -28291.32, -28623.84, -28668.93, -35413.12, 115182.58, -28304.28, 0.000, 0.000, 0.000, 18:03:20.938
69, -27704.94, -27247.69, -28352.49, -28675.46, -28710.97, -35392.60, 115207.80, -27863.46, 0.000, 0.000, 0.000, 18:03:20.938
70, -27705.23, -27924.62, -28366.06, -28626.26, -28643.63, -35390.48, 115197.73, -28378.91, 0.000, 0.000, 0.000, 18:03:20.938
71, -27758.18, -28662.83, -28298.25, -28528.36, -28544.61, -35403.87, 115166.76, -29184.54, 0.000, 0.000, 0.000, 18:03:20.938
72, -27752.91, -28711.40, -28236.76, -28522.55, -28553.95, -35404.40, 115158.24, -29200.99, 0.032, 0.990, -0.036, 18:03:20.939
73, -27741.84, -28176.09, -28275.65, -28618.93, -28659.56, -35387.57, 115186.56, -28254.06, 0.000, 0.000, 0.000, 18:03:20.939
74, -27695.06, -27663.88, -28353.01, -28678.23, -28716.34, -35368.89, 115211.93, -27840.59, 0.000, 0.000, 0.000, 18:03:21.417
75, -27680.89, -27738.83, -28379.92, -28639.80, -28665.87, -35369.89, 115202.12, -28379.88, 0.000, 0.000, 0.000, 18:03:21.417
76, -27780.51, -28180.52, -28319.30, -28551.11, -28572.95, -35382.90, 115169.55, -29195.42, 0.000, 0.000, 0.000, 18:03:21.418
77, -27772.15, -28233.96, -28264.23, -28555.38, -28578.92, -35385.11, 115161.77, -29222.76, 0.000, 0.000, 0.000, 18:03:21.419
78, -27720.45, -27664.91, -28290.96, -28631.98, -28668.21, -35369.58, 115191.45, -28264.03, 0.000, 0.000, 0.000, 18:03:21.419
79, -27648.91, -27209.65, -28351.82, -28680.44, -28704.62, -35349.68, 115217.83, -27809.59, 0.000, 0.000, 0.000, 18:03:21.420
80, -27654.56, -27882.21, -28372.54, -28639.20, -28645.48, -35346.24, 115206.70, -28317.51, 0.000, 0.000, 0.000, 18:03:21.420
81, -27704.94, -28622.86, -28313.89, -28550.08, -28556.41, -35361.78, 115177.48, -29125.55, 0.000, 0.000, 0.000, 18:03:21.421
82, -27711.47, -28680.51, -28254.41, -28542.44, -28563.38, -35365.06, 115170.66, -29155.99, 0.038, 0.990, -0.034, 18:03:21.422
83, -27710.37, -28146.75, -28285.57, -28633.05, -28662.11, -35347.25, 115197.63, -28216.48, 0.000, 0.000, 0.000, 18:03:21.422
84, -27647.10, -27631.79, -28362.22, -28698.48, -28715.98, -35328.07, 115222.57, -27798.91, 0.000, 0.000, 0.000, 18:03:21.423
85, -27610.57, -27705.12, -28394.07, -28668.84, -28666.58, -35330.15, 115214.09, -28324.17, 0.000, 0.000, 0.000, 18:03:21.423
86, -27712.52, -28143.44, -28327.42, -28572.26, -28566.51, -35344.41, 115182.58, -29138.34, 0.000, 0.000, 0.000, 18:03:21.424
87, -27716.10, -28196.75, -28253.90, -28543.98, -28557.46, -35348.79, 115176.79, -29174.37, 0.000, 0.000, 0.000, 18:03:21.424
88, -27692.74, -27636.84, -28283.36, -28627.26, -28652.72, -35331.67, 115204.30, -28226.59, 0.000, 0.000, 0.000, 18:03:21.425
89, -27607.69, -27164.28, -28348.76, -28684.26, -28696.93, -35311.22, 115230.13, -27769.07, 0.000, 0.000, 0.000, 18:03:21.426
90, -27610.37, -27827.29, -28378.98, -28645.48, -28649.62, -35307.53, 115219.13, -28286.04, 0.000, 0.000, 0.000, 18:03:21.426
91, -27667.68, -28594.65, -28332.04, -28565.06, -28565.73, -35319.02, 115185.27, -29109.73, 0.000, 0.000, 0.000, 18:03:21.427
92, -27674.16, -28667.52, -28265.61, -28551.02, -28562.98, -35322.59, 115177.93, -29158.52, 0.040, 0.988, -0.034, 18:03:21.427
93, -27670.05, -28147.84, -28295.56, -28639.49, -28658.45, -35305.90, 115205.60, -28207.01, 0.000, 0.000, 0.000, 18:03:21.428
94, -27616.52, -27630.44, -28348.47, -28705.56, -28709.56, -35287.68, 115232.09, -27749.40, 0.000, 0.000, 0.000, 18:03:21.428
95, -27592.91, -27694.79, -28353.79, -28673.53, -28653.91, -35290.25, 115224.96, -28274.82, 0.000, 0.000, 0.000, 18:03:21.429
96, -27693.05, -28135.01, -28339.26, -28584.28, -28562.09, -35304.27, 115193.31, -29093.83, 0.000, 0.000, 0.000, 18:03:21.430
97, -27686.32, -28196.57, -28270.51, -28565.71, -28557.95, -35307.02, 115185.45, -29139.77, 0.000, 0.000, 0.000, 18:03:21.430
98, -27640.30, -27645.06, -28296.14, -28644.34, -28651.94, -35291.64, 115214.70, -28195.65, 0.000, 0.000, 0.000, 18:03:21.431
99, -27570.52, -27146.57, -28334.32, -28698.43, -28705.09, -35270.14, 115239.80, -27735.14, 0.000, 0.000, 0.000, 18:03:21.431
100, -27572.42, -27781.59, -28313.42, -28653.62, -28650.17, -35265.62, 115228.78, -28240.53, 0.000, 0.000, 0.000, 18:03:21.431
101, -27628.37, -28545.77, -28325.07, -28568.90, -28564.75, -35279.97, 115198.18, -29060.06, 0.000, 0.000, 0.000, 18:03:21.432
102, -27634.27, -28616.83, -28258.37, -28543.38, -28556.81, -35283.77, 115191.08, -29114.80, 0.028, 0.998, -0.036, 18:03:21.432
103, -27626.58, -28092.57, -28281.04, -28622.77, -28646.89, -35266.49, 115218.23, -28175.29, 0.000, 0.000, 0.000, 18:03:21.432
104, -27569.06, -27571.21, -28240.11, -28688.42, -28701.20, -35247.27, 115244.20, -27726.18, 0.000, 0.000, 0.000, 18:03:21.433
105, -27547.65, -27637.30, -28196.21, -28660.50, -28646.69, -35250.24, 115237.72, -28248.78, 0.000, 0.000, 0.000, 18:03:21.433
106, -27652.55, -28085.17, -28302.81, -28570.40, -28552.65, -35265.87, 115207.55, -29073.09, 0.000, 0.000, 0.000, 18:03:21.433
107, -27653.53, -28159.69, -28258.66, -28556.99, -28554.29, -35267.97, 115197.84, -29139.54, 0.000, 0.000, 0.000, 18:03:21.434
108, -27602.59, -27614.73, -28274.49, -28621.23, -28639.42, -35250.64, 115224.76, -28185.50, 0.000, 0.000, 0.000, 18:03:21.434
109, -27544.30, -27101.04, -28221.71, -28676.42, -28679.10, -35229.34, 115250.30, -27687.37, 0.000, 0.000, 0.000, 18:03:21.435
110, -27533.91, -27724.92, -28222.43, -28643.31, -28613.25, -35227.98, 115242.59, -28178.53, 0.000, 0.000, 0.000, 18:03:21.435
111, -27593.88, -28513.67, -28301.02, -28562.20, -28526.66, -35240.74, 115210.45, -28997.56, 0.000, 0.000, 0.000, 18:03:21.435
112, -27601.86, -28602.28, -28247.53, -28541.59, -28528.00, -35243.80, 115201.60, -29069.13, 0.030, 0.996, -0.042, 18:03:21.436
113, -27592.47, -28090.24, -28256.43, -28669.49, -28632.67, -35226.59, 115227.84, -28132.71, 0.000, 0.000, 0.000, 18:03:21.436
114, -27547.79, -27605.79, -28038.07, -29220.37, -28683.81, -35212.47, 115255.83, -27694.46, 0.000, 0.000, 0.000, 18:03:21.436
115, -27543.88, -27783.13, -28091.02, -29522.88, -28614.26, -35224.07, 115249.16, -28293.20, 0.000, 0.000, 0.000, 18:03:21.437
116, -27804.65, -28340.20, -28298.38, -29426.41, -28515.84, -35248.61, 115218.61, -29222.20, 0.000, 0.000, 0.000, 18:03:21.437
117, -27871.46, -28520.51, -28254.57, -29403.29, -28516.49, -35260.57, 115209.63, -29400.84, 0.000, 0.000, 0.000, 18:03:21.437
118, -27636.72, -28122.79, -28277.21, -29476.00, -28608.33, -35252.21, 115235.30, -28500.84, 0.000, 0.000, 0.000, 18:03:21.438
119, -27579.77, -27727.03, -28288.19, -29534.61, -28663.90, -35246.33, 115263.45, -27915.90, 0.000, 0.000, 0.000, 18:03:21.439
120, -27530.84, -27910.76, -28278.85, -29499.00, -28610.32, -35255.00, 115253.37, -28364.88, 0.000, 0.000, 0.000, 18:03:21.439
121, -27857.45, -28459.89, -28302.61, -29394.49, -28503.21, -35279.72, 115223.73, -29261.63, 0.030, 0.990, -0.038, 18:03:21.440
122, -27925.62, -28644.92, -28236.33, -29363.46, -28493.60, -35293.11, 115215.95, -29449.03, 0.000, 0.000, 0.000, 18:03:21.440
123, -27672.55, -28254.24, -28262.24, -29440.87, -28584.51, -35288.71, 115244.95, -28563.05, 0.000, 0.000, 0.000, 18:03:21.441
124, -27607.18, -27860.78, -28345.50, -29510.05, -28646.02, -35279.03, 115268.97, -27965.85, 0.000, 0.000, 0.000, 18:03:21.441
125, -27557.06, -28035.93, -28384.66, -29484.74, -28599.77, -35289.67, 115262.06, -28374.31, 0.000, 0.000, 0.000, 18:03:21.442
126, -27880.38, -28581.42, -28315.52, -29378.39, -28492.13, -35314.79, 115233.16, -29265.50, 0.000, 0.000, 0.000, 18:03:21.442
127, -27948.02, -28768.15, -28236.55, -29340.24, -28476.32, -35326.30, 115223.53, -29459.58, 0.000, 0.000, 0.000, 18:03:21.443
128, -27696.78, -28380.32, -28264.45, -29419.72, -28571.07, -35319.42, 115249.97, -28577.62, 0.000, 0.000, 0.000, 18:03:21.443
129, -27649.60, -27979.96, -28336.74, -29481.99, -28621.32, -35310.26, 115275.41, -27979.67, 0.000, 0.000, 0.000, 18:03:21.443
130, -27591.15, -28146.46, -28363.67, -29449.83, -28566.18, -35319.38, 115267.88, -28389.29, 0.000, 0.000, 0.000, 18:03:21.444
131, -27910.33, -28695.53, -28303.30, -29351.79, -28467.87, -35344.54, 115238.80, -29283.67, 0.032, 0.990, -0.036, 18:03:21.444
132, -27987.67, -28891.95, -28233.76, -29329.20, -28462.58, -35358.71, 115230.93, -29491.05, 0.000, 0.000, 0.000, 18:03:21.445
133, -27730.71, -28507.46, -28259.71, -29407.43, -28555.89, -35354.02, 115259.29, -28615.91, 0.000, 0.000, 0.000, 18:03:21.445
134, -27692.38, -28107.47, -28334.05, -29467.00, -28609.12, -35344.45, 115284.35, -28023.37, 0.000, 0.000, 0.000, 18:03:21.446
135, -27643.52, -28273.53, -28370.51, -29441.02, -28568.46, -35354.56, 115278.11, -28444.74, 0.000, 0.000, 0.000, 18:03:21.446
136, -27957.31, -28821.37, -28304.75, -29345.78, -28466.71, -35377.58, 115247.11, -29337.47, 0.000, 0.000, 0.000, 18:03:21.447
137, -28032.15, -29019.49, -28228.49, -29317.46, -28449.72, -35390.59, 115238.02, -29547.20, 0.000, 0.000, 0.000, 18:03:21.448
138, -27776.02, -28639.45, -28262.26, -29398.58, -28555.63, -35385.31, 115265.62, -28674.36, 0.000, 0.000, 0.000, 18:03:21.449
139, -27711.65, -28242.14, -28341.05, -29457.14, -28615.37, -35378.32, 115293.22, -28058.39, 0.000, 0.000, 0.000, 18:03:21.449
140, -27663.23, -28407.26, -28374.78, -29434.77, -28570.65, -35388.60, 115287.23, -28455.40, 0.000, 0.000, 0.000, 18:03:21.450
141, -27983.62, -28955.66, -28306.76, -29337.16, -28468.43, -35413.12, 115257.77, -29349.74, 0.028, 0.988, -0.032, 18:03:21.452
142, -28064.11, -29161.54, -28229.07, -29303.34, -28456.50, -35423.73, 115245.91, -29573.30, 0.000, 0.000, 0.000, 18:03:21.453
143, -27810.73, -28786.88, -28254.53, -29387.83, -28550.71, -35419.94, 115274.52, -28709.83, 0.000, 0.000, 0.000, 18:03:21.454
144, -27746.16, -28387.25, -28330.43, -29448.51, -28609.47, -35411.71, 115301.09, -28091.87, 0.000, 0.000, 0.000, 18:03:21.454
145, -27688.31, -28543.67, -28361.05, -29414.94, -28558.13, -35419.82, 115293.20, -28482.58, 0.000, 0.000, 0.000, 18:03:21.455
146, -28008.21, -29088.80, -28289.24, -29313.31, -28453.79, -35444.14, 115263.61, -29377.66, 0.000, 0.000, 0.000, 18:03:21.456
147, -28088.25, -29292.47, -28200.95, -29273.83, -28435.31, -35456.93, 115253.77, -29603.97, 0.000, 0.000, 0.000, 18:03:21.457
148, -27834.65, -28916.61, -28222.41, -29353.90, -28528.25, -35452.70, 115281.89, -28740.10, 0.000, 0.000, 0.000, 18:03:21.457
149, -27772.42, -28516.15, -28301.67, -29423.77, -28587.50, -35444.52, 115308.29, -28123.01, 0.000, 0.000, 0.000, 18:03:21.458
150, -27712.72, -28673.40, -28328.64, -29383.47, -28529.01, -35453.17, 115301.25, -28514.16, 0.000, 0.000, 0.000, 18:03:21.459
151, -28036.28, -29224.61, -28268.56, -29292.94, -28434.59, -35475.86, 115269.46, -29414.36, 0.026, 0.990, -0.036, 18:03:21.459
152, -28120.01, -29430.96, -28189.21, -29257.05, -28414.56, -35488.09, 115258.47, -29647.67, 0.000, 0.000, 0.000, 18:03:21.460
153, -27867.69, -29051.92, -28214.81, -29340.20, -28508.60, -35483.89, 115286.36, -28785.00, 0.000, 0.000, 0.000, 18:03:21.460
154, -27805.55, -28649.66, -28300.55, -29415.23, -28580.77, -35475.50, 115312.53, -28154.35, 0.000, 0.000, 0.000, 18:03:21.461
155, -27743.77, -28802.66, -28338.01, -29386.08, -28535.24, -35484.53, 115306.03, -28543.69, 0.000, 0.000, 0.000, 18:03:21.461
156, -28066.68, -29350.90, -28281.39, -29289.32, -28440.22, -35508.76, 115275.92, -29441.00, 0.000, 0.000, 0.000, 18:03:21.461
157, -28155.98, -29562.95, -28204.14, -29258.75, -28416.87, -35521.52, 115265.04, -29685.04, 0.000, 0.000, 0.000, 18:03:21.461
158, -27905.86, -29190.68, -28227.59, -29335.75, -28505.80, -35515.07, 115290.27, -28831.94, 0.000, 0.000, 0.000, 18:03:21.462
159, -27840.53, -28787.37, -28316.66, -29421.06, -28586.29, -35507.62, 115317.30, -28196.97, 0.000, 0.000, 0.000, 18:03:21.462
160, -27782.30, -28932.79, -28346.68, -29387.22, -28542.55, -35517.61, 115312.51, -28565.06, 0.000, 0.000, 0.000, 18:03:21.462
161, -28097.62, -29476.85, -28278.73, -29272.47, -28445.19, -35540.34, 115281.42, -29455.40, 0.030, 0.986, -0.030, 18:03:21.462
162, -28191.79, -29698.45, -28209.89, -29251.50, -28434.23, -35552.75, 115269.64, -29710.59, 0.000, 0.000, 0.000, 18:03:21.463
163, -27937.62, -29336.75, -28243.02, -29346.41, -28534.06, -35549.04, 115297.13, -28862.09, 0.000, 0.000, 0.000, 18:03:21.463
164, -27874.77, -28934.20, -28332.24, -29434.59, -28611.30, -35539.81, 115322.86, -28223.52, 0.000, 0.000, 0.000, 18:03:21.463
165, -27822.24, -29078.32, -28371.58, -29406.11, -28574.42, -35550.11, 115318.41, -28595.55, 0.000, 0.000, 0.000, 18:03:21.463
166, -28137.63, -29624.33, -28303.48, -29304.07, -28469.91, -35574.23, 115288.62, -29491.34, 0.000, 0.000, 0.000, 18:03:21.463
167, -28230.50, -29843.02, -28216.28, -29269.07, -28443.78, -35587.29, 115277.53, -29748.96, 0.000, 0.000, 0.000, 18:03:21.464
168, -27977.57, -29467.38, -28223.46, -29329.94, -28523.51, -35580.00, 115302.27, -28891.75, 0.000, 0.000, 0.000, 18:03:21.464
169, -27923.52, -29048.75, -28293.20, -29394.24, -28576.26, -35572.06, 115330.62, -28245.63, 0.000, 0.000, 0.000, 18:03:21.465
170, -27855.39, -29186.42, -28328.29, -29366.75, -28533.05, -35581.56, 115326.23, -28628.31, 0.034, 0.990, -0.036, 18:03:21.465
171, -28165.52, -29731.17, -28262.04, -29266.81, -28433.61, -35605.48, 115296.58, -29525.29, 0.000, 0.000, 0.000, 18:03:21.465
172, -28259.47, -29954.26, -28183.38, -29232.77, -28414.14, -35617.86, 115284.46, -29791.57, 0.000, 0.000, 0.000, 18:03:21.465
173, -28005.19, -29592.50, -28209.31, -29314.65, -28510.54, -35612.99, 115310.70, -28948.62, 0.000, 0.000, 0.000, 18:03:21.465
174, -27940.33, -29187.49, -28297.33, -29394.38, -28587.48, -35603.27, 115335.91, -28293.64, 0.000, 0.000, 0.000, 18:03:21.465
175, -27876.54, -29326.20, -28328.24, -29359.93, -28532.04, -35613.77, 115332.65, -28650.04, 0.000, 0.000, 0.000, 18:03:21.465
176, -28191.85, -29876.62, -28266.73, -29268.47, -28430.88, -35638.22, 115303.66, -29543.13, 0.000, 0.000, 0.000, 18:03:21.466
177, -28289.73, -30105.54, -28186.46, -29236.28, -28408.33, -35651.66, 115292.38, -29809.18, 0.000, 0.000, 0.000, 18:03:21.466
