%OpenBCI Raw EEG Data
%
%Sample Rate = 250.0 Hz
%First Column = SampleIndex
%Last Column = Timestamp 
%Other Columns = EEG data in microvolts followed by Accel Data (in G) interleaved with Aux Data
0, 0.00, 0.00, 0.00, 0.00, 0.00, 0.00, 0.00, 0.00, -0.088, 0.984, -0.060, 19:33:00.496
1, 3797.11, -3414.99, -10616.83, -6862.34, -3864.53, -5947.62, 14644.62, 167130.36, 0.000, 0.000, 0.000, 19:33:00.512
2, 3875.41, -3397.67, -10551.83, -6789.54, -3812.58, -5908.55, 14635.83, 167099.36, 0.000, 0.000, 0.000, 19:33:00.991
3, 3931.58, -2970.68, -10549.84, -6777.92, -3835.65, -5949.12, 14657.00, 167146.05, 0.000, 0.000, 0.000, 19:33:00.992
4, 3885.05, -2739.70, -10612.59, -6842.67, -3897.56, -6007.84, 14681.52, 167206.63, 0.000, 0.000, 0.000, 19:33:00.992
5, 3800.31, -3009.66, -10655.79, -6897.88, -3915.51, -6004.97, 14678.32, 167200.39, 0.000, 0.000, 0.000, 19:33:00.993
6, 3789.11, -3423.04, -10629.84, -6873.09, -3873.98, -5947.55, 14652.15, 167135.20, 0.000, 0.000, 0.000, 19:33:00.993
7, 3863.07, -3414.70, -10572.42, -6807.25, -3823.71, -5918.09, 14646.40, 167106.80, 0.000, 0.000, 0.000, 19:33:00.994
8, 3913.10, -2990.28, -10578.12, -6804.54, -3848.34, -5965.79, 14666.75, 167152.63, -0.094, 0.986, -0.062, 19:33:00.994
9, 3866.70, -2760.37, -10645.04, -6873.36, -3916.38, -6026.34, 14690.04, 167211.97, 0.000, 0.000, 0.000, 19:33:00.994
10, 3782.00, -3025.62, -10687.40, -6926.29, -3932.92, -6019.01, 14688.87, 167207.83, 0.000, 0.000, 0.000, 19:33:00.995
11, 3768.93, -3434.55, -10655.90, -6900.01, -3879.57, -5955.87, 14665.40, 167145.11, 0.000, 0.000, 0.000, 19:33:00.995
12, 3843.45, -3428.44, -10589.63, -6830.58, -3825.55, -5919.84, 14656.62, 167113.48, 0.000, 0.000, 0.000, 19:33:00.996
13, 3897.97, -3005.46, -10581.92, -6815.65, -3844.39, -5959.24, 14677.65, 167159.75, 0.000, 0.000, 0.000, 19:33:00.996
14, 3858.54, -2765.85, -10635.23, -6875.26, -3903.40, -6011.37, 14702.17, 167220.44, 0.000, 0.000, 0.000, 19:33:00.997
15, 3785.07, -3024.59, -10668.31, -6918.67, -3919.98, -6004.15, 14699.89, 167215.31, 0.000, 0.000, 0.000, 19:33:00.997
16, 3781.47, -3428.18, -10629.84, -6884.36, -3871.88, -5947.73, 14679.08, 167155.53, 0.000, 0.000, 0.000, 19:33:00.997
17, 3863.12, -3418.30, -10561.60, -6808.25, -3826.22, -5918.38, 14670.81, 167124.44, -0.094, 0.986, -0.062, 19:33:00.998
18, 3921.84, -3000.68, -10550.25, -6787.15, -3848.75, -5961.68, 14688.76, 167167.81, 0.000, 0.000, 0.000, 19:33:00.998
19, 3884.62, -2758.25, -10608.56, -6842.81, -3913.88, -6022.25, 14711.16, 167226.42, 0.000, 0.000, 0.000, 19:33:00.999
20, 3812.22, -3014.13, -10644.17, -6885.95, -3931.02, -6018.68, 14709.71, 167222.63, 0.000, 0.000, 0.000, 19:33:00.999
21, 3802.99, -3423.73, -10609.68, -6856.78, -3882.70, -5957.99, 14687.42, 167161.63, 0.000, 0.000, 0.000, 19:33:01.000
22, 3880.78, -3415.32, -10539.27, -6784.11, -3828.79, -5917.20, 14678.57, 167129.94, 0.000, 0.000, 0.000, 19:33:01.000
23, 3939.70, -2986.24, -10529.15, -6766.45, -3844.86, -5952.31, 14696.67, 167173.30, 0.000, 0.000, 0.000, 19:33:01.001
24, 3895.24, -2742.04, -10594.17, -6832.64, -3910.01, -6012.24, 14719.23, 167232.28, 0.000, 0.000, 0.000, 19:33:01.001
25, 3815.71, -3000.68, -10640.84, -6887.65, -3928.83, -6008.53, 14717.35, 167228.27, 0.000, 0.000, 0.000, 19:33:01.002
26, 3805.79, -3412.31, -10612.18, -6863.48, -3879.26, -5945.36, 14695.74, 167167.95, 0.000, 0.000, 0.000, 19:33:01.002
27, 3877.87, -3409.89, -10550.74, -6795.71, -3829.84, -5911.83, 14686.57, 167135.97, -0.100, 0.982, -0.060, 19:33:01.003
28, 3930.42, -2992.14, -10553.80, -6787.42, -3855.16, -5957.25, 14707.58, 167182.30, 0.000, 0.000, 0.000, 19:33:01.003
29, 3881.45, -2754.58, -10621.88, -6859.55, -3921.41, -6017.22, 14733.00, 167244.31, 0.000, 0.000, 0.000, 19:33:01.004
30, 3798.97, -3011.76, -10660.82, -6912.23, -3931.87, -6007.88, 14730.89, 167240.28, 0.000, 0.000, 0.000, 19:33:01.004
31, 3784.55, -3428.11, -10633.37, -6891.22, -3880.62, -5950.46, 14707.92, 167178.59, 0.000, 0.000, 0.000, 19:33:01.005
32, 3860.06, -3434.10, -10573.67, -6820.86, -3832.01, -5918.81, 14698.95, 167146.41, 0.000, 0.000, 0.000, 19:33:01.005
33, 3917.28, -3017.75, -10568.26, -6804.85, -3850.85, -5958.06, 14718.38, 167190.80, 0.000, 0.000, 0.000, 19:33:01.005
34, 3875.73, -2772.64, -10623.96, -6863.28, -3906.30, -6014.54, 14741.85, 167251.02, 0.000, 0.000, 0.000, 19:33:01.006
35, 3793.60, -3025.40, -10665.65, -6913.84, -3922.19, -6011.59, 14739.48, 167246.83, 0.000, 0.000, 0.000, 19:33:01.006
36, 3784.17, -3431.42, -10632.08, -6884.87, -3872.39, -5950.01, 14717.80, 167186.55, 0.000, 0.000, 0.000, 19:33:01.006
37, 3866.63, -3430.86, -10560.13, -6808.18, -3819.15, -5913.22, 14708.70, 167154.30, -0.096, 0.982, -0.060, 19:33:01.007
38, 3931.58, -3006.51, -10547.21, -6785.43, -3838.00, -5954.64, 14729.40, 167200.03, 0.000, 0.000, 0.000, 19:33:01.007
39, 3891.73, -2758.45, -10607.44, -6844.01, -3902.95, -6019.50, 14753.60, 167261.25, 0.000, 0.000, 0.000, 19:33:01.008
40, 3811.33, -3008.12, -10649.64, -6891.91, -3925.12, -6022.72, 14750.45, 167256.67, 0.000, 0.000, 0.000, 19:33:01.009
41, 3801.23, -3414.81, -10615.51, -6861.87, -3881.13, -5965.21, 14730.20, 167198.08, 0.000, 0.000, 0.000, 19:33:01.063
42, 3879.30, -3412.37, -10547.77, -6790.15, -3834.87, -5930.70, 14719.54, 167164.09, 0.000, 0.000, 0.000, 19:33:01.063
43, 3940.01, -2989.81, -10539.00, -6774.34, -3852.68, -5968.68, 14737.38, 167206.84, 0.000, 0.000, 0.000, 19:33:01.063
44, 3901.81, -2744.37, -10596.22, -6834.18, -3911.76, -6021.92, 14760.58, 167266.97, 0.000, 0.000, 0.000, 19:33:01.063
45, 3822.30, -3002.64, -10640.44, -6882.39, -3931.02, -6017.27, 14759.28, 167264.16, 0.000, 0.000, 0.000, 19:33:01.063
46, 3808.63, -3416.58, -10608.92, -6857.60, -3883.15, -5958.73, 14737.13, 167203.63, 0.000, 0.000, 0.000, 19:33:01.064
47, 3887.91, -3423.91, -10540.68, -6786.08, -3828.41, -5919.70, 14727.81, 167170.84, -0.096, 0.980, -0.064, 19:33:01.064
48, 3944.05, -3003.34, -10540.79, -6773.90, -3849.15, -5962.82, 14744.82, 167212.59, 0.000, 0.000, 0.000, 19:33:01.064
49, 3902.35, -2756.55, -10606.44, -6837.82, -3913.50, -6022.30, 14766.68, 167271.59, 0.000, 0.000, 0.000, 19:33:01.064
50, 3819.04, -3012.12, -10654.34, -6892.99, -3934.85, -6021.02, 14767.15, 167270.80, 0.000, 0.000, 0.000, 19:33:01.064
51, 3799.77, -3427.77, -10629.57, -6873.94, -3890.12, -5964.32, 14744.95, 167210.22, 0.000, 0.000, 0.000, 19:33:01.065
52, 3869.22, -3438.61, -10566.27, -6808.18, -3837.82, -5927.86, 14735.07, 167176.69, 0.000, 0.000, 0.000, 19:33:01.065
53, 3923.02, -3022.07, -10557.53, -6794.19, -3852.50, -5962.86, 14754.68, 167220.75, 0.000, 0.000, 0.000, 19:33:01.065
54, 3877.38, -2775.06, -10613.32, -6856.31, -3906.12, -6018.94, 14778.55, 167281.66, 0.000, 0.000, 0.000, 19:33:01.065
55, 3792.24, -3025.22, -10652.42, -6907.29, -3919.31, -6013.54, 14780.00, 167282.14, 0.000, 0.000, 0.000, 19:33:01.065
56, 3783.77, -3434.99, -10615.20, -6876.92, -3863.30, -5948.78, 14756.80, 167220.61, 0.000, 0.000, 0.000, 19:33:01.065
57, 3861.64, -3442.46, -10543.81, -6802.46, -3810.35, -5912.35, 14745.04, 167184.98, -0.100, 0.984, -0.062, 19:33:01.066
58, 3918.35, -3019.43, -10536.79, -6789.57, -3833.57, -5958.66, 14764.96, 167229.16, 0.000, 0.000, 0.000, 19:33:01.066
59, 3876.57, -2763.28, -10595.17, -6848.24, -3897.56, -6018.16, 14787.60, 167289.09, 0.000, 0.000, 0.000, 19:33:01.066
60, 3801.52, -3009.84, -10636.32, -6895.27, -3916.23, -6013.09, 14787.15, 167287.92, 0.000, 0.000, 0.000, 19:33:01.066
61, 3797.67, -3420.84, -10601.75, -6867.04, -3866.05, -5949.07, 14765.65, 167228.14, 0.000, 0.000, 0.000, 19:33:01.066
62, 3882.81, -3427.28, -10523.40, -6786.68, -3809.01, -5902.94, 14754.68, 167193.05, 0.000, 0.000, 0.000, 19:33:01.067
63, 3950.42, -3004.86, -10505.19, -6761.40, -3822.73, -5933.56, 14773.68, 167236.31, 0.000, 0.000, 0.000, 19:33:01.067
64, 3910.64, -2751.75, -10564.86, -6818.00, -3883.01, -5989.69, 14797.86, 167297.64, 0.000, 0.000, 0.000, 19:33:01.067
65, 3828.16, -3001.50, -10612.61, -6870.72, -3903.51, -5991.32, 14796.76, 167296.00, 0.000, 0.000, 0.000, 19:33:01.067
66, 3815.55, -3418.45, -10586.14, -6846.65, -3857.17, -5937.99, 14774.23, 167235.23, -0.100, 0.982, -0.060, 19:33:01.067
67, 3891.84, -3429.79, -10521.10, -6775.73, -3804.69, -5903.61, 14763.06, 167199.94, 0.000, 0.000, 0.000, 19:33:01.068
68, 3953.20, -3016.30, -10515.11, -6761.74, -3823.76, -5944.16, 14781.88, 167242.55, 0.000, 0.000, 0.000, 19:33:01.068
69, 3912.72, -2766.16, -10584.09, -6827.34, -3889.23, -6007.17, 14804.86, 167302.72, 0.000, 0.000, 0.000, 19:33:01.095
70, 3832.92, -3012.88, -10634.98, -6885.10, -3916.38, -6011.03, 14803.49, 167301.03, 0.000, 0.000, 0.000, 19:33:01.095
71, 3819.31, -3431.84, -10611.98, -6863.59, -3876.75, -5957.28, 14782.88, 167242.36, 0.000, 0.000, 0.000, 19:33:01.096
72, 3889.56, -3457.41, -10547.72, -6796.58, -3821.52, -5916.01, 14770.77, 167205.77, 0.000, 0.000, 0.000, 19:33:01.096
73, 3940.01, -3048.91, -10545.37, -6788.98, -3836.16, -5951.62, 14788.16, 167246.98, 0.000, 0.000, 0.000, 19:33:01.097
74, 3894.32, -2790.39, -10610.82, -6854.79, -3894.77, -6008.19, 14812.32, 167308.45, 0.000, 0.000, 0.000, 19:33:01.097
75, 3654.13, -3023.36, -10653.27, -6908.01, -3908.45, -6003.03, 14813.13, 167308.95, 0.000, 0.000, 0.000, 19:33:01.097
76, 2897.43, -3375.63, -10617.28, -6878.73, -3851.81, -5940.22, 14792.67, 167250.55, -0.098, 0.984, -0.062, 19:33:01.098
77, 2704.36, -3304.46, -10544.86, -6807.92, -3797.52, -5903.56, 14779.73, 167213.58, 0.000, 0.000, 0.000, 19:33:01.098
78, 2741.22, -2827.07, -10536.21, -6792.61, -3818.10, -5947.28, 14797.61, 167256.11, 0.000, 0.000, 0.000, 19:33:01.098
79, 2694.53, -2525.39, -10594.91, -6848.84, -3882.16, -6012.60, 14819.38, 167316.41, 0.000, 0.000, 0.000, 19:33:01.098
80, 2601.77, -2746.49, -10645.17, -6906.40, -3910.57, -6025.25, 14814.91, 167313.33, 0.000, 0.000, 0.000, 19:33:01.099
81, 2583.21, -3147.04, -10616.27, -6883.71, -3868.33, -5973.59, 14792.41, 167254.33, 0.000, 0.000, 0.000, 19:33:01.099
82, 2661.09, -3154.32, -10542.74, -6809.62, -3813.14, -5935.19, 14781.05, 167219.88, 0.000, 0.000, 0.000, 19:33:01.099
83, 2723.38, -2731.05, -10527.81, -6786.15, -3830.19, -5974.17, 14796.83, 167261.08, 0.000, 0.000, 0.000, 19:33:01.099
84, 2680.40, -2466.76, -10589.50, -6843.46, -3897.97, -6035.60, 14820.17, 167323.61, 0.000, 0.000, 0.000, 19:33:01.099
85, 2597.52, -2703.18, -10637.93, -6898.51, -3920.09, -6034.43, 14819.30, 167324.84, 0.000, 0.000, 0.000, 19:33:01.100
86, 2586.05, -3118.65, -10611.13, -6873.27, -3871.14, -5973.19, 14793.52, 167263.17, -0.092, 0.980, -0.060, 19:33:01.100
87, 2656.26, -3141.36, -10544.61, -6801.88, -3819.71, -5933.47, 14780.69, 167227.45, 0.000, 0.000, 0.000, 19:33:01.100
88, 2719.83, -2720.23, -10534.49, -6782.23, -3835.65, -5968.94, 14796.92, 167269.00, 0.000, 0.000, 0.000, 19:33:01.100
89, 2678.21, -2459.61, -10599.91, -6845.69, -3907.35, -6032.20, 14816.03, 167327.66, 0.000, 0.000, 0.000, 19:33:01.100
90, 2595.19, -2692.38, -10652.51, -6902.13, -3941.04, -6035.31, 14813.28, 167327.36, 0.000, 0.000, 0.000, 19:33:01.100
91, 2585.40, -3101.26, -10625.73, -6881.14, -3887.35, -5972.79, 14788.41, 167267.02, 0.000, 0.000, 0.000, 19:33:01.101
92, 2661.49, -3123.97, -10559.99, -6810.80, -3830.44, -5929.25, 14775.29, 167231.30, 0.000, 0.000, 0.000, 19:33:01.101
93, 2721.24, -2710.53, -10554.85, -6794.57, -3853.04, -5968.34, 14791.45, 167273.08, 0.000, 0.000, 0.000, 19:33:01.101
94, 2677.72, -2454.49, -10623.54, -6860.40, -3922.87, -6032.98, 14813.48, 167335.19, 0.000, 0.000, 0.000, 19:33:01.101
95, 2592.94, -2693.77, -10675.01, -6919.45, -3950.29, -6036.58, 14808.77, 167333.47, 0.000, 0.000, 0.000, 19:33:01.101
96, 2566.16, -3119.05, -10655.39, -6908.01, -3907.73, -5981.48, 14784.49, 167273.81, -0.092, 0.984, -0.064, 19:33:01.101
97, 2626.62, -3158.44, -10596.16, -6844.75, -3856.10, -5946.97, 14771.93, 167238.58, 0.000, 0.000, 0.000, 19:33:01.101
98, 2676.35, -2752.59, -10593.92, -6833.53, -3873.83, -5987.72, 14789.72, 167282.08, 0.000, 0.000, 0.000, 19:33:01.102
99, 2638.29, -2489.07, -10655.75, -6895.45, -3932.14, -6045.97, 14810.76, 167343.45, 0.000, 0.000, 0.000, 19:33:01.102
100, 2557.53, -2719.96, -10704.12, -6951.88, -3953.58, -6049.45, 14805.46, 167341.61, 0.000, 0.000, 0.000, 19:33:01.102
101, 2543.49, -3128.01, -10679.24, -6928.17, -3906.24, -5991.65, 14780.67, 167281.95, 0.000, 0.000, 0.000, 19:33:01.102
102, 2612.32, -3146.88, -10618.38, -6860.96, -3857.82, -5957.57, 14766.41, 167245.47, 0.000, 0.000, 0.000, 19:33:01.102
103, 2669.78, -2729.35, -10607.58, -6841.33, -3875.59, -5998.90, 14781.10, 167286.16, 0.000, 0.000, 0.000, 19:33:01.102
104, 2634.51, -2457.89, -10659.28, -6895.65, -3934.85, -6056.56, 14803.22, 167349.16, 0.000, 0.000, 0.000, 19:33:01.103
105, 2560.73, -2683.75, -10695.96, -6942.05, -3955.48, -6051.49, 14800.30, 167350.41, 0.000, 0.000, 0.000, 19:33:01.103
106, 2552.48, -3094.24, -10662.34, -6912.52, -3907.78, -5989.66, 14774.14, 167289.95, -0.094, 0.984, -0.066, 19:33:01.103
107, 2631.76, -3119.32, -10592.98, -6837.60, -3854.65, -5948.02, 14758.23, 167252.08, 0.000, 0.000, 0.000, 19:33:01.103
108, 2696.34, -2703.31, -10573.34, -6811.18, -3864.42, -5976.23, 14773.00, 167293.06, 0.000, 0.000, 0.000, 19:33:01.103
109, 2660.98, -2437.64, -10623.02, -6866.10, -3922.75, -6027.84, 14793.37, 167354.72, 0.000, 0.000, 0.000, 19:33:01.103
110, 2576.71, -2672.87, -10664.33, -6920.61, -3943.76, -6025.18, 14787.89, 167353.83, 0.000, 0.000, 0.000, 19:33:01.104
111, 2566.02, -3093.53, -10632.63, -6894.80, -3894.84, -5963.24, 14761.81, 167293.72, 0.000, 0.000, 0.000, 19:33:01.104
112, 2644.90, -3132.35, -10565.76, -6820.63, -3839.07, -5920.71, 14747.39, 167257.16, 0.000, 0.000, 0.000, 19:33:01.104
113, 2711.80, -2717.82, -10553.80, -6798.48, -3853.19, -5954.64, 14761.63, 167297.70, 0.000, 0.000, 0.000, 19:33:01.104
114, 2673.09, -2444.54, -10615.20, -6857.78, -3913.88, -6014.05, 14781.90, 167359.48, 0.000, 0.000, 0.000, 19:33:01.104
115, 2582.39, -2678.77, -10667.12, -6916.84, -3940.39, -6019.53, 14778.88, 167361.41, -0.094, 0.980, -0.064, 19:33:01.105
116, 2555.99, -3104.93, -10648.95, -6901.82, -3896.31, -5964.92, 14752.82, 167301.44, 0.000, 0.000, 0.000, 19:33:01.105
117, 2626.46, -3137.60, -10589.43, -6835.79, -3845.37, -5928.33, 14736.79, 167263.23, 0.000, 0.000, 0.000, 19:33:01.105
118, 2694.46, -2720.56, -10574.99, -6815.05, -3859.74, -5964.00, 14751.37, 167304.02, 0.000, 0.000, 0.000, 19:33:01.105
119, 2659.12, -2446.53, -10629.98, -6873.16, -3918.73, -6021.22, 14769.85, 167364.05, 0.000, 0.000, 0.000, 19:33:01.105
120, 2571.30, -2678.43, -10676.24, -6930.47, -3940.32, -6025.18, 14766.03, 167365.28, 0.000, 0.000, 0.000, 19:33:01.106
121, 2553.31, -3096.70, -10653.22, -6907.31, -3895.26, -5969.73, 14742.27, 167307.81, 0.000, 0.000, 0.000, 19:33:01.106
122, 2627.09, -3128.22, -10589.83, -6835.19, -3841.06, -5931.12, 14727.07, 167270.75, 0.000, 0.000, 0.000, 19:33:01.470
123, 2683.15, -2719.49, -10581.29, -6820.34, -3859.79, -5972.65, 14738.36, 167308.30, 0.000, 0.000, 0.000, 19:33:01.471
124, 2641.28, -2449.30, -10639.41, -6881.30, -3925.19, -6035.17, 14759.62, 167371.42, 0.000, 0.000, 0.000, 19:33:01.471
125, 2556.84, -2677.29, -10684.80, -6939.26, -3949.58, -6039.20, 14756.08, 167373.55, -0.094, 0.984, -0.064, 19:33:01.471
126, 2537.19, -3098.38, -10660.42, -6917.17, -3904.49, -5982.60, 14729.60, 167313.48, 0.000, 0.000, 0.000, 19:33:01.471
127, 2611.67, -3134.39, -10594.77, -6845.60, -3846.67, -5940.74, 14712.36, 167274.08, 0.000, 0.000, 0.000, 19:33:01.471
128, 2680.94, -2720.86, -10577.45, -6820.17, -3859.19, -5975.56, 14726.13, 167314.22, 0.000, 0.000, 0.000, 19:33:01.471
129, 2648.70, -2444.52, -10630.96, -6873.68, -3924.68, -6037.85, 14746.21, 167376.58, 0.000, 0.000, 0.000, 19:33:01.471
130, 2572.31, -2665.87, -10672.87, -6921.28, -3949.40, -6040.54, 14742.72, 167379.06, 0.000, 0.000, 0.000, 19:33:01.472
131, 2561.47, -3085.64, -10641.42, -6894.04, -3902.12, -5978.20, 14717.04, 167320.22, 0.000, 0.000, 0.000, 19:33:01.472
132, 2634.44, -3127.59, -10571.68, -6818.85, -3842.98, -5932.13, 14700.41, 167281.52, 0.000, 0.000, 0.000, 19:33:01.472
133, 2699.17, -2710.48, -10555.79, -6793.52, -3852.68, -5963.71, 14711.90, 167319.34, 0.000, 0.000, 0.000, 19:33:01.472
134, 2668.26, -2429.81, -10607.29, -6846.72, -3908.72, -6019.53, 14731.65, 167381.55, 0.000, 0.000, 0.000, 19:33:01.472
135, 2588.53, -2653.53, -10648.35, -6897.35, -3926.73, -6019.75, 14726.98, 167382.95, -0.090, 0.980, -0.064, 19:33:01.472
136, 2569.11, -3075.96, -10626.26, -6875.06, -3879.46, -5962.71, 14700.58, 167323.50, 0.000, 0.000, 0.000, 19:33:01.473
137, 2632.54, -3120.15, -10566.50, -6807.51, -3826.44, -5926.99, 14685.86, 167286.73, 0.000, 0.000, 0.000, 19:33:01.473
138, 2690.28, -2708.27, -10555.14, -6789.30, -3840.86, -5966.93, 14698.01, 167325.08, 0.000, 0.000, 0.000, 19:33:01.474
139, 2656.30, -2426.21, -10608.99, -6846.05, -3899.78, -6026.39, 14716.75, 167386.23, 0.000, 0.000, 0.000, 19:33:01.474
140, 2574.00, -2645.17, -10658.52, -6906.76, -3925.03, -6030.93, 14713.13, 167388.88, 0.000, 0.000, 0.000, 19:33:01.474
141, 2552.88, -3067.75, -10639.21, -6892.43, -3880.20, -5973.77, 14686.53, 167329.33, 0.000, 0.000, 0.000, 19:33:01.474
142, 2623.76, -3115.36, -10574.30, -6824.93, -3824.23, -5931.50, 14671.42, 167292.03, 0.000, 0.000, 0.000, 19:33:01.474
143, 2685.83, -2714.08, -10557.09, -6806.71, -3835.00, -5964.36, 14683.35, 167329.98, 0.000, 0.000, 0.000, 19:33:01.475
144, 2646.18, -2441.82, -10612.65, -6867.26, -3897.03, -6025.61, 14703.65, 167393.02, 0.000, 0.000, 0.000, 19:33:01.475
145, 2559.72, -2660.53, -10660.53, -6921.64, -3920.32, -6029.05, 14698.95, 167395.30, -0.092, 0.982, -0.064, 19:33:01.475
146, 2542.00, -3076.56, -10634.09, -6898.33, -3872.91, -5968.00, 14673.38, 167336.94, 0.000, 0.000, 0.000, 19:33:01.475
147, 2613.72, -3118.22, -10571.50, -6828.06, -3820.07, -5927.95, 14655.23, 167296.56, 0.000, 0.000, 0.000, 19:33:01.475
148, 2674.41, -2716.01, -10561.13, -6809.39, -3838.08, -5968.12, 14665.02, 167332.50, 0.000, 0.000, 0.000, 19:33:01.475
149, 2639.16, -2439.04, -10615.56, -6868.82, -3904.58, -6031.01, 14684.89, 167395.41, 0.000, 0.000, 0.000, 19:33:01.476
150, 2557.17, -2655.45, -10661.40, -6922.07, -3930.87, -6031.19, 14681.94, 167399.72, 0.000, 0.000, 0.000, 19:33:01.476
151, 2538.55, -3072.54, -10635.03, -6898.46, -3885.22, -5967.58, 14654.38, 167339.55, 0.000, 0.000, 0.000, 19:33:01.476
152, 2616.92, -3119.66, -10565.96, -6823.90, -3829.57, -5921.18, 14636.28, 167299.52, 0.000, 0.000, 0.000, 19:33:01.477
153, 2686.30, -2711.51, -10545.40, -6796.99, -3840.41, -5952.72, 14649.85, 167339.50, 0.000, 0.000, 0.000, 19:33:01.478
154, 2647.39, -2430.22, -10601.45, -6856.15, -3903.08, -6018.21, 14670.21, 167403.05, -0.090, 0.984, -0.066, 19:33:01.478
155, 2559.23, -2649.06, -10651.70, -6912.19, -3929.79, -6027.75, 14665.52, 167405.80, 0.000, 0.000, 0.000, 19:33:01.478
156, 2545.26, -3064.94, -10624.68, -6887.89, -3883.48, -5970.06, 14636.73, 167344.80, 0.000, 0.000, 0.000, 19:33:01.479
157, 2623.33, -3108.10, -10553.82, -6812.05, -3825.03, -5928.80, 14619.99, 167306.00, 0.000, 0.000, 0.000, 19:33:01.479
158, 2688.15, -2702.95, -10536.50, -6786.03, -3839.67, -5969.08, 14633.55, 167345.72, 0.000, 0.000, 0.000, 19:33:01.479
159, 2654.11, -2424.18, -10592.07, -6843.23, -3902.66, -6034.28, 14653.71, 167409.13, 0.000, 0.000, 0.000, 19:33:01.480
160, 2579.48, -2632.41, -10634.89, -6890.80, -3923.83, -6033.81, 14647.68, 167410.94, 0.000, 0.000, 0.000, 19:33:01.481
161, 2560.35, -3053.43, -10611.09, -6870.21, -3875.39, -5973.64, 14621.26, 167352.56, 0.000, 0.000, 0.000, 19:33:01.481
162, 2628.86, -3107.97, -10550.63, -6800.79, -3818.80, -5932.04, 14602.46, 167311.67, 0.000, 0.000, 0.000, 19:33:01.481
163, 2695.33, -2703.62, -10535.67, -6779.82, -3829.19, -5962.53, 14615.51, 167350.67, 0.000, 0.000, 0.000, 19:33:01.481
164, 2660.80, -2422.46, -10589.70, -6841.71, -3891.10, -6021.09, 14634.60, 167413.17, -0.096, 0.978, -0.064, 19:33:01.482
165, 2576.06, -2639.88, -10636.52, -6898.66, -3915.09, -6020.80, 14630.74, 167417.31, 0.000, 0.000, 0.000, 19:33:01.482
166, 2551.83, -3064.56, -10619.69, -6885.37, -3869.91, -5960.74, 14605.25, 167359.86, 0.000, 0.000, 0.000, 19:33:01.482
167, 2622.26, -3122.29, -10556.77, -6817.55, -3812.67, -5915.81, 14586.39, 167318.45, 0.000, 0.000, 0.000, 19:33:01.482
168, 2684.74, -2721.46, -10539.85, -6796.18, -3825.17, -5946.61, 14598.44, 167356.31, 0.000, 0.000, 0.000, 19:33:01.482
169, 2645.62, -2436.05, -10593.56, -6858.68, -3885.43, -6005.40, 14619.09, 167420.38, 0.000, 0.000, 0.000, 19:33:01.482
170, 2558.65, -2647.77, -10640.15, -6914.49, -3908.92, -6007.05, 14615.11, 167424.73, 0.000, 0.000, 0.000, 19:33:01.483
171, 2538.02, -3070.75, -10618.22, -6893.55, -3861.93, -5945.05, 14588.07, 167365.75, 0.000, 0.000, 0.000, 19:33:01.483
172, 2617.26, -3125.00, -10545.51, -6815.31, -3801.05, -5895.74, 14570.50, 167325.56, 0.000, 0.000, 0.000, 19:33:01.483
173, 2689.45, -2723.00, -10521.12, -6786.77, -3813.01, -5928.64, 14582.32, 167363.36, 0.000, 0.000, 0.000, 19:33:01.483
174, 2659.21, -2436.32, -10572.20, -6842.54, -3878.16, -5994.22, 14599.78, 167424.47, -0.092, 0.980, -0.064, 19:33:01.483
175, 2576.55, -2643.12, -10619.29, -6894.40, -3909.28, -6004.46, 14594.71, 167428.00, 0.000, 0.000, 0.000, 19:33:01.483
176, 2560.93, -3057.03, -10594.30, -6869.52, -3866.54, -5952.45, 14567.55, 167369.09, 0.000, 0.000, 0.000, 19:33:01.484
177, 2639.88, -3107.45, -10527.38, -6793.01, -3810.23, -5914.09, 14550.27, 167329.16, 0.000, 0.000, 0.000, 19:33:01.484
178, 2709.41, -2703.73, -10508.02, -6764.87, -3823.74, -5951.24, 14561.74, 167366.42, 0.000, 0.000, 0.000, 19:33:01.484
179, 2674.45, -2414.23, -10561.76, -6822.91, -3887.59, -6019.12, 14578.70, 167427.19, 0.000, 0.000, 0.000, 19:33:01.484
180, 2586.21, -2624.41, -10612.03, -6884.76, -3916.58, -6028.29, 14574.50, 167431.77, 0.000, 0.000, 0.000, 19:33:01.484
181, 2562.02, -3049.94, -10592.20, -6867.51, -3870.34, -5970.69, 14546.31, 167371.95, 0.000, 0.000, 0.000, 19:33:01.484
182, 2630.98, -3113.75, -10533.01, -6800.83, -3813.77, -5927.50, 14529.15, 167331.84, 0.000, 0.000, 0.000, 19:33:01.485
183, 2698.46, -2713.35, -10517.86, -6777.85, -3824.23, -5958.71, 14541.33, 167369.66, 0.000, 0.000, 0.000, 19:33:01.486
184, 2662.61, -2421.30, -10575.01, -6839.70, -3887.21, -6019.86, 14562.36, 167434.50, -0.094, 0.980, -0.068, 19:33:01.486
185, 2577.49, -2625.08, -10624.83, -6897.23, -3912.76, -6022.25, 14557.49, 167438.66, 0.000, 0.000, 0.000, 19:33:01.486
186, 2556.57, -3049.92, -10606.55, -6877.81, -3870.47, -5964.92, 14529.06, 167378.78, 0.000, 0.000, 0.000, 19:33:01.486
187, 2629.73, -3112.08, -10543.07, -6808.25, -3815.55, -5919.55, 14511.29, 167338.05, 0.000, 0.000, 0.000, 19:33:01.486
188, 2697.99, -2711.87, -10527.63, -6785.18, -3827.51, -5951.17, 14522.96, 167375.09, 0.000, 0.000, 0.000, 19:33:01.487
189, 2664.13, -2430.75, -10583.89, -6850.30, -3889.99, -6009.51, 14542.02, 167437.78, 0.000, 0.000, 0.000, 19:33:01.487
190, 2583.33, -2638.02, -10628.79, -6908.90, -3904.72, -6002.92, 14536.97, 167441.84, 0.000, 0.000, 0.000, 19:33:01.487
191, 2559.72, -3063.66, -10606.06, -6890.04, -3854.83, -5938.37, 14509.17, 167382.38, 0.000, 0.000, 0.000, 19:33:01.487
192, 2627.43, -3134.76, -10538.89, -6815.45, -3793.58, -5892.63, 14490.99, 167341.09, 0.000, 0.000, 0.000, 19:33:01.487
193, 2693.14, -2737.06, -10513.90, -6785.70, -3797.32, -5924.53, 14503.42, 167378.70, 0.000, 0.000, 0.000, 19:33:01.487
194, 2662.76, -2436.68, -10558.27, -6836.10, -3856.50, -5984.88, 14520.77, 167439.80, -0.090, 0.980, -0.066, 19:33:01.488
195, 2584.87, -2629.75, -10597.77, -6884.25, -3878.34, -5985.95, 14517.84, 167446.20, 0.000, 0.000, 0.000, 19:33:01.488
196, 2564.53, -3050.57, -10574.74, -6863.15, -3836.83, -5931.35, 14490.17, 167387.25, 0.000, 0.000, 0.000, 19:33:01.488
197, 2637.42, -3117.44, -10509.99, -6787.29, -3779.84, -5892.19, 14472.96, 167346.97, 0.000, 0.000, 0.000, 19:33:01.488
198, 2710.26, -2719.27, -10481.94, -6755.17, -3786.07, -5927.37, 14483.55, 167382.58, 0.000, 0.000, 0.000, 19:33:01.488
199, 2684.80, -2417.81, -10525.24, -6806.04, -3847.34, -5990.87, 14503.51, 167446.59, 0.000, 0.000, 0.000, 19:33:01.488
200, 2605.07, -2611.29, -10574.36, -6861.96, -3878.41, -6003.32, 14499.20, 167451.98, 0.000, 0.000, 0.000, 19:33:01.488
201, 2580.20, -3036.17, -10565.74, -6851.14, -3842.47, -5956.23, 14472.55, 167394.08, 0.000, 0.000, 0.000, 19:33:01.488
202, 2645.33, -3112.57, -10510.06, -6787.20, -3792.60, -5920.91, 14454.05, 167352.52, 0.000, 0.000, 0.000, 19:33:01.489
203, 2709.23, -2715.87, -10497.56, -6767.93, -3808.56, -5958.08, 14463.77, 167387.14, -0.088, 0.986, -0.064, 19:33:01.489
204, 2676.08, -2419.22, -10554.00, -6830.34, -3876.91, -6023.57, 14482.68, 167450.19, 0.000, 0.000, 0.000, 19:33:01.489
205, 2591.89, -2622.69, -10606.21, -6892.29, -3904.87, -6031.60, 14479.88, 167457.28, 0.000, 0.000, 0.000, 19:33:01.489
206, 2559.72, -3106.87, -10596.11, -6884.02, -3867.66, -5977.68, 14451.16, 167397.45, 0.000, 0.000, 0.000, 19:33:01.489
207, 2602.61, -3162.84, -10539.27, -6819.14, -3816.83, -5936.02, 14431.47, 167354.14, 0.000, 0.000, 0.000, 19:33:01.489
208, 2677.14, -2438.78, -10513.54, -6786.86, -3818.06, -5958.84, 14444.99, 167392.05, 0.000, 0.000, 0.000, 19:33:01.489
209, 2675.64, -2176.81, -10554.18, -6832.01, -3871.25, -6009.40, 14463.50, 167454.45, 0.000, 0.000, 0.000, 19:33:01.490
210, 2598.01, -2470.63, -10599.64, -6889.72, -3895.93, -6013.00, 14461.27, 167462.11, 0.000, 0.000, 0.000, 19:33:01.490
211, 2573.58, -2951.68, -10582.30, -6872.85, -3850.07, -5950.70, 14436.34, 167406.11, 0.000, 0.000, 0.000, 19:33:01.490
212, 2644.84, -3059.93, -10515.65, -6801.50, -3786.09, -5893.46, 14415.73, 167361.75, 0.000, 0.000, 0.000, 19:33:01.490
213, 2710.35, -2691.17, -10495.08, -6776.94, -3793.74, -5916.86, 14426.29, 167396.50, -0.090, 0.986, -0.064, 19:33:01.493
214, 2675.66, -2405.41, -10543.29, -6834.65, -3854.49, -5977.50, 14447.12, 167461.39, 0.000, 0.000, 0.000, 19:33:01.493
215, 2587.17, -2608.27, -10593.77, -6896.90, -3885.45, -5988.52, 14444.66, 167469.30, 0.000, 0.000, 0.000, 19:33:01.493
216, 2552.86, -3106.96, -10576.78, -6882.48, -3843.38, -5937.20, 14416.74, 167410.38, 0.000, 0.000, 0.000, 19:33:01.494
217, 2593.65, -3143.42, -10516.96, -6815.92, -3795.15, -5904.59, 14398.90, 167368.77, 0.000, 0.000, 0.000, 19:33:01.494
218, 2667.26, -2425.57, -10492.60, -6786.91, -3807.15, -5945.09, 14411.38, 167405.28, 0.000, 0.000, 0.000, 19:33:01.494
219, 2656.57, -2171.27, -10540.95, -6840.21, -3871.01, -6014.99, 14429.35, 167467.16, 0.000, 0.000, 0.000, 19:33:01.494
220, 2577.40, -2461.53, -10593.70, -6898.75, -3903.51, -6032.78, 14422.75, 167470.86, 0.000, 0.000, 0.000, 19:33:01.494
221, 2546.36, -2984.09, -10589.79, -6886.77, -3868.68, -5987.85, 14396.89, 167414.03, 0.000, 0.000, 0.000, 19:33:01.494
222, 2590.12, -3125.62, -10534.56, -6821.42, -3813.57, -5948.38, 14378.05, 167371.17, 0.000, 0.000, 0.000, 19:33:01.495
223, 2660.28, -2436.03, -10505.52, -6789.43, -3814.93, -5977.01, 14387.79, 167404.75, -0.088, 0.986, -0.068, 19:33:01.495
224, 2647.41, -2162.51, -10550.36, -6838.74, -3875.61, -6038.61, 14407.80, 167468.72, 0.000, 0.000, 0.000, 19:33:01.495
225, 2568.42, -2456.48, -10600.56, -6897.52, -3904.98, -6046.06, 14404.78, 167476.14, 0.000, 0.000, 0.000, 19:33:01.495
226, 2540.32, -2994.26, -10593.63, -6886.64, -3864.84, -5994.31, 14377.74, 167418.11, 0.000, 0.000, 0.000, 19:33:01.496
227, 2581.94, -3118.98, -10542.07, -6827.25, -3817.57, -5956.11, 14358.65, 167374.59, 0.000, 0.000, 0.000, 19:33:01.496
228, 2655.81, -2424.99, -10517.30, -6797.88, -3826.24, -5984.84, 14371.39, 167410.88, 0.000, 0.000, 0.000, 19:33:01.496
229, 2647.70, -2164.19, -10563.93, -6850.00, -3884.60, -6044.02, 14391.04, 167474.38, 0.000, 0.000, 0.000, 19:33:01.497
230, 2569.22, -2459.00, -10614.98, -6909.91, -3909.79, -6049.10, 14388.55, 167482.23, 0.000, 0.000, 0.000, 19:33:01.497
231, 2546.22, -2990.86, -10603.98, -6895.56, -3868.82, -5990.25, 14362.09, 167424.91, 0.000, 0.000, 0.000, 19:33:01.497
232, 2592.49, -3110.71, -10544.30, -6829.96, -3816.16, -5943.66, 14340.79, 167379.11, 0.000, 0.000, 0.000, 19:33:01.497
233, 2665.91, -2412.13, -10512.96, -6799.02, -3817.32, -5963.47, 14352.01, 167413.59, -0.086, 0.986, -0.066, 19:33:01.498
234, 2658.49, -2144.20, -10552.12, -6848.10, -3868.17, -6015.66, 14371.90, 167477.02, 0.000, 0.000, 0.000, 19:33:01.498
235, 2579.37, -2443.81, -10599.96, -6905.24, -3887.59, -6015.08, 14369.20, 167484.91, 0.000, 0.000, 0.000, 19:33:01.498
236, 2552.17, -2988.63, -10584.49, -6884.61, -3839.16, -5948.72, 14343.29, 167428.17, 0.000, 0.000, 0.000, 19:33:01.498
237, 2592.89, -3104.68, -10520.85, -6818.65, -3785.51, -5901.71, 14324.07, 167384.14, 0.000, 0.000, 0.000, 19:33:01.498
238, 2666.03, -2404.06, -10485.87, -6783.02, -3789.11, -5924.75, 14336.34, 167419.44, 0.000, 0.000, 0.000, 19:33:01.499
239, 2661.53, -2132.78, -10522.08, -6828.86, -3846.36, -5985.13, 14359.07, 167485.89, 0.000, 0.000, 0.000, 19:33:01.499
240, 2582.39, -2425.01, -10567.08, -6885.95, -3875.59, -5999.52, 14356.03, 167493.69, 0.000, 0.000, 0.000, 19:33:01.499
241, 2552.97, -2965.54, -10555.99, -6873.76, -3837.77, -5955.56, 14329.28, 167436.05, 0.000, 0.000, 0.000, 19:33:01.499
242, 2597.36, -3090.93, -10500.92, -6811.65, -3789.11, -5921.89, 14308.63, 167390.44, 0.000, 0.000, 0.000, 19:33:01.951
243, 2664.91, -2394.63, -10479.03, -6782.99, -3799.71, -5959.78, 14318.44, 167423.09, -0.084, 0.986, -0.066, 19:33:01.951
244, 2653.24, -2124.31, -10524.36, -6834.07, -3863.07, -6027.64, 14340.21, 167488.72, 0.000, 0.000, 0.000, 19:33:01.951
245, 2573.94, -2419.53, -10575.01, -6895.09, -3892.13, -6038.68, 14336.45, 167495.97, 0.000, 0.000, 0.000, 19:33:01.952
246, 2543.52, -2962.16, -10569.92, -6883.33, -3854.98, -5985.64, 14310.21, 167438.98, 0.000, 0.000, 0.000, 19:33:01.952
247, 2584.67, -3079.04, -10513.54, -6818.11, -3803.24, -5940.74, 14292.17, 167395.77, 0.000, 0.000, 0.000, 19:33:01.952
248, 2653.49, -2385.58, -10487.08, -6785.30, -3808.71, -5965.10, 14303.08, 167429.25, 0.000, 0.000, 0.000, 19:33:01.952
249, 2647.30, -2116.08, -10530.02, -6837.29, -3870.41, -6025.23, 14322.57, 167492.55, 0.000, 0.000, 0.000, 19:33:01.953
250, 2574.79, -2408.67, -10583.26, -6896.56, -3902.06, -6033.63, 14323.13, 167504.41, 0.000, 0.000, 0.000, 19:33:01.953
251, 2551.09, -2953.60, -10580.58, -6884.27, -3865.87, -5978.67, 14297.85, 167448.61, 0.000, 0.000, 0.000, 19:33:01.953
252, 2599.24, -3073.90, -10522.66, -6817.15, -3814.50, -5934.14, 14277.31, 167402.69, -0.092, 0.984, -0.066, 19:33:01.953
253, 2672.06, -2380.19, -10496.25, -6787.84, -3821.30, -5959.18, 14288.08, 167435.64, 0.000, 0.000, 0.000, 19:33:01.953
254, 2670.90, -2109.56, -10535.65, -6835.43, -3875.50, -6012.48, 14306.61, 167497.66, 0.000, 0.000, 0.000, 19:33:01.953
255, 2596.33, -2398.57, -10590.10, -6894.98, -3905.39, -6020.13, 14303.73, 167506.05, 0.000, 0.000, 0.000, 19:33:01.953
0, 2569.09, -2948.49, -10589.29, -6880.60, -3864.71, -5959.98, 14277.40, 167449.19, 0.000, 0.000, 0.000, 19:33:01.954
1, 2609.63, -3070.95, -10531.63, -6814.38, -3806.84, -5910.05, 14261.02, 167407.19, 0.000, 0.000, 0.000, 19:33:01.954
2, 2677.05, -2373.71, -10503.00, -6789.57, -3808.31, -5934.14, 14270.34, 167438.55, 0.000, 0.000, 0.000, 19:33:01.954
3, 2665.40, -2097.91, -10543.00, -6843.05, -3861.98, -5990.85, 14291.50, 167503.31, 0.000, 0.000, 0.000, 19:33:01.954
4, 2583.28, -2394.21, -10594.64, -6904.65, -3891.51, -5998.74, 14291.12, 167514.19, 0.000, 0.000, 0.000, 19:33:01.954
5, 2546.22, -2954.74, -10592.45, -6895.98, -3846.36, -5939.53, 14263.41, 167455.83, 0.000, 0.000, 0.000, 19:33:01.954
6, 2581.36, -3066.37, -10532.52, -6834.05, -3788.40, -5897.28, 14244.83, 167411.50, -0.090, 0.982, -0.064, 19:33:01.955
7, 2651.50, -2363.16, -10499.60, -6798.08, -3793.23, -5929.14, 14254.85, 167443.30, 0.000, 0.000, 0.000, 19:33:01.955
8, 2647.05, -2084.10, -10537.75, -6845.18, -3851.52, -5995.94, 14275.92, 167508.06, 0.000, 0.000, 0.000, 19:33:01.955
9, 2571.68, -2377.31, -10591.66, -6906.06, -3889.65, -6019.26, 14274.81, 167518.63, 0.000, 0.000, 0.000, 19:33:01.955
10, 2540.77, -2935.10, -10603.31, -6896.65, -3858.51, -5978.42, 14249.73, 167463.16, 0.000, 0.000, 0.000, 19:33:01.955
11, 2581.31, -3050.74, -10552.08, -6831.27, -3815.20, -5946.41, 14230.33, 167417.88, 0.000, 0.000, 0.000, 19:33:01.955
12, 2658.85, -2356.59, -10515.09, -6793.72, -3824.41, -5978.58, 14240.52, 167449.70, 0.000, 0.000, 0.000, 19:33:01.955
13, 2659.43, -2085.46, -10546.87, -6838.23, -3883.19, -6037.68, 14260.86, 167513.52, 0.000, 0.000, 0.000, 19:33:01.956
14, 2586.25, -2379.95, -10595.44, -6895.16, -3913.21, -6046.46, 14259.74, 167524.11, 0.000, 0.000, 0.000, 19:33:01.956
15, 2551.05, -2948.93, -10606.19, -6885.77, -3880.35, -5994.87, 14234.55, 167468.63, 0.000, 0.000, 0.000, 19:33:01.956
16, 2590.03, -3049.05, -10553.58, -6822.13, -3828.76, -5949.27, 14213.54, 167421.69, -0.088, 0.982, -0.064, 19:33:01.957
17, 2665.83, -2356.79, -10512.47, -6788.65, -3832.21, -5970.35, 14223.78, 167453.31, 0.000, 0.000, 0.000, 19:33:01.957
18, 2662.38, -2089.64, -10540.66, -6837.06, -3886.23, -6021.67, 14243.72, 167516.70, 0.000, 0.000, 0.000, 19:33:01.957
19, 2588.33, -2385.29, -10589.34, -6898.82, -3918.13, -6027.10, 14243.85, 167528.80, 0.000, 0.000, 0.000, 19:33:01.957
20, 2555.61, -2959.24, -10603.80, -6892.70, -3879.84, -5971.09, 14218.30, 167472.73, 0.000, 0.000, 0.000, 19:33:01.958
21, 2595.10, -3033.40, -10553.02, -6828.61, -3821.75, -5921.00, 14197.67, 167425.73, 0.000, 0.000, 0.000, 19:33:01.958
22, 2675.53, -2334.95, -10507.80, -6795.69, -3817.48, -5936.35, 14207.80, 167456.89, 0.000, 0.000, 0.000, 19:33:01.958
23, 2670.65, -2067.89, -10538.15, -6850.90, -3871.70, -5989.66, 14231.85, 167524.44, 0.000, 0.000, 0.000, 19:33:01.958
24, 2591.77, -2370.04, -10584.65, -6914.33, -3897.38, -5993.13, 14230.51, 167534.97, 0.000, 0.000, 0.000, 19:33:01.959
25, 2552.99, -2951.30, -10598.12, -6905.24, -3856.61, -5934.08, 14203.57, 167477.66, 0.000, 0.000, 0.000, 19:33:01.959
26, 2586.34, -3034.11, -10550.04, -6842.63, -3801.72, -5890.02, 14184.06, 167431.75, -0.092, 0.982, -0.068, 19:33:01.959
27, 2655.14, -2339.60, -10504.22, -6809.66, -3805.18, -5920.51, 14192.87, 167461.47, 0.000, 0.000, 0.000, 19:33:01.959
28, 2648.26, -2069.06, -10531.34, -6859.21, -3867.05, -5991.25, 14214.66, 167526.61, 0.000, 0.000, 0.000, 19:33:01.959
29, 2570.32, -2367.36, -10580.73, -6921.08, -3904.83, -6012.66, 14214.19, 167538.14, 0.000, 0.000, 0.000, 19:33:01.960
30, 2532.03, -2949.83, -10602.84, -6912.54, -3873.31, -5971.87, 14189.09, 167482.80, 0.000, 0.000, 0.000, 19:33:01.960
31, 2568.13, -3026.90, -10567.70, -6850.41, -3827.36, -5941.38, 14171.18, 167438.34, 0.000, 0.000, 0.000, 19:33:01.960
32, 2646.96, -2330.93, -10521.39, -6816.21, -3838.24, -5975.69, 14181.04, 167469.02, 0.000, 0.000, 0.000, 19:33:01.960
33, 2648.10, -2057.41, -10545.11, -6863.71, -3900.13, -6041.99, 14203.17, 167534.70, 0.000, 0.000, 0.000, 19:33:01.960
34, 2572.60, -2357.13, -10596.47, -6924.77, -3936.52, -6060.83, 14201.92, 167545.78, 0.000, 0.000, 0.000, 19:33:01.961
35, 2534.80, -2940.46, -10617.01, -6914.71, -3899.31, -6008.62, 14174.92, 167488.52, 0.000, 0.000, 0.000, 19:33:01.961
36, 2573.78, -3017.13, -10580.04, -6845.60, -3843.85, -5958.89, 14155.38, 167442.03, -0.086, 0.980, -0.068, 19:33:01.962
37, 2654.29, -2319.28, -10524.14, -6803.80, -3840.63, -5980.57, 14165.10, 167472.08, 0.000, 0.000, 0.000, 19:33:01.962
38, 2658.74, -2037.38, -10536.41, -6845.71, -3897.99, -6036.11, 14187.28, 167537.86, 0.000, 0.000, 0.000, 19:33:01.962
39, 2583.95, -2332.49, -10582.75, -6904.14, -3927.80, -6042.95, 14187.08, 167549.92, 0.000, 0.000, 0.000, 19:33:01.962
40, 2548.32, -2923.09, -10603.51, -6893.37, -3885.25, -5986.33, 14162.60, 167495.05, 0.000, 0.000, 0.000, 19:33:01.963
41, 2587.42, -3010.18, -10568.37, -6825.95, -3825.64, -5935.21, 14144.00, 167449.50, 0.000, 0.000, 0.000, 19:33:01.963
42, 2670.43, -2312.04, -10512.54, -6785.72, -3818.93, -5949.54, 14154.00, 167479.52, 0.000, 0.000, 0.000, 19:33:01.963
43, 2671.06, -2033.83, -10522.37, -6832.03, -3871.03, -6001.60, 14173.44, 167542.20, 0.000, 0.000, 0.000, 19:33:01.963
44, 2590.81, -2333.10, -10570.16, -6896.81, -3895.48, -6008.46, 14174.34, 167555.33, 0.000, 0.000, 0.000, 19:33:01.963
45, 2545.51, -2924.55, -10592.13, -6893.95, -3853.57, -5953.43, 14148.74, 167499.09, -0.088, 0.980, -0.066, 19:33:01.963
46, 2577.56, -3001.33, -10559.01, -6835.79, -3796.67, -5904.79, 14128.74, 167451.63, 0.000, 0.000, 0.000, 19:33:01.963
47, 2652.88, -2308.53, -10507.49, -6804.00, -3800.85, -5929.45, 14139.44, 167482.02, 0.000, 0.000, 0.000, 19:33:01.964
48, 2653.78, -2025.02, -10520.45, -6853.49, -3861.15, -5989.89, 14161.04, 167546.86, 0.000, 0.000, 0.000, 19:33:01.965
49, 2583.37, -2323.40, -10568.20, -6910.18, -3890.83, -5999.12, 14163.36, 167561.66, 0.000, 0.000, 0.000, 19:33:01.965
50, 2539.00, -2918.62, -10591.13, -6907.52, -3863.66, -5957.39, 14139.44, 167507.52, 0.000, 0.000, 0.000, 19:33:01.965
51, 2565.33, -3009.10, -10563.43, -6849.42, -3816.29, -5922.16, 14118.14, 167458.77, 0.000, 0.000, 0.000, 19:33:01.965
52, 2639.18, -2326.91, -10516.41, -6811.40, -3818.66, -5950.28, 14127.71, 167487.67, 0.000, 0.000, 0.000, 19:33:01.965
53, 2641.28, -2036.20, -10523.89, -6855.97, -3878.63, -6020.20, 14148.18, 167551.27, 0.000, 0.000, 0.000, 19:33:01.965
54, 2567.19, -2336.99, -10581.70, -6915.14, -3913.66, -6041.39, 14147.94, 167563.69, 0.000, 0.000, 0.000, 19:33:01.965
55, 2524.03, -2934.81, -10598.55, -6910.20, -3883.79, -5997.44, 14123.06, 167508.58, -0.090, 0.978, -0.068, 19:33:01.966
56, 2556.39, -3001.82, -10568.20, -6853.76, -3839.60, -5961.79, 14101.18, 167458.97, 0.000, 0.000, 0.000, 19:33:01.966
57, 2634.91, -2318.17, -10531.90, -6818.56, -3841.80, -5988.61, 14112.44, 167489.53, 0.000, 0.000, 0.000, 19:33:01.966
58, 2639.81, -2027.35, -10536.63, -6862.21, -3892.62, -6047.29, 14135.44, 167555.67, 0.000, 0.000, 0.000, 19:33:01.966
59, 2566.61, -2333.92, -10595.44, -6920.84, -3923.60, -6060.88, 14136.74, 167569.59, 0.000, 0.000, 0.000, 19:33:01.966
60, 2525.72, -2939.84, -10609.30, -6914.29, -3889.49, -6006.09, 14111.97, 167514.67, 0.000, 0.000, 0.000, 19:33:01.966
61, 2562.23, -3000.86, -10567.55, -6849.83, -3833.55, -5955.20, 14090.54, 167465.17, 0.000, 0.000, 0.000, 19:33:01.966
62, 2642.94, -2309.40, -10524.47, -6808.27, -3826.98, -5971.20, 14100.42, 167493.89, 0.000, 0.000, 0.000, 19:33:01.966
63, 2645.42, -2015.48, -10524.63, -6849.80, -3877.38, -6021.52, 14122.75, 167559.25, 0.000, 0.000, 0.000, 19:33:01.966
64, 2567.01, -2321.99, -10577.99, -6909.01, -3904.00, -6026.97, 14121.12, 167570.38, 0.000, 0.000, 0.000, 19:33:01.966
65, 2520.70, -2936.95, -10588.78, -6904.54, -3866.52, -5971.13, 14097.33, 167516.44, -0.090, 0.978, -0.064, 19:33:01.967
66, 2560.68, -2990.08, -10547.72, -6837.69, -3802.30, -5914.25, 14080.50, 167471.36, 0.000, 0.000, 0.000, 19:33:01.967
67, 2641.98, -2308.62, -10498.21, -6800.61, -3800.33, -5933.52, 14089.15, 167498.63, 0.000, 0.000, 0.000, 19:33:01.967
68, 2645.95, -2021.04, -10505.30, -6845.24, -3856.77, -5995.74, 14108.08, 167560.66, 0.000, 0.000, 0.000, 19:33:01.967
69, 2574.54, -2318.37, -10566.59, -6906.96, -3887.48, -6011.35, 14108.96, 167574.53, 0.000, 0.000, 0.000, 19:33:01.967
70, 2535.11, -2916.30, -10577.85, -6898.44, -3853.24, -5961.81, 14084.15, 167519.45, 0.000, 0.000, 0.000, 19:33:01.967
71, 2567.61, -2985.12, -10541.13, -6835.14, -3801.79, -5922.34, 14064.86, 167471.77, 0.000, 0.000, 0.000, 19:33:01.967
72, 2646.29, -2301.89, -10500.36, -6801.50, -3807.35, -5952.20, 14074.18, 167499.55, 0.000, 0.000, 0.000, 19:33:01.968
73, 2652.28, -2008.80, -10510.91, -6850.85, -3871.68, -6018.92, 14095.81, 167564.23, 0.000, 0.000, 0.000, 19:33:01.968
74, 2578.41, -2312.11, -10570.45, -6916.41, -3910.19, -6039.31, 14096.71, 167578.23, 0.000, 0.000, 0.000, 19:33:01.968
75, 2530.73, -2922.42, -10588.85, -6914.91, -3883.15, -5997.04, 14072.93, 167524.39, -0.092, 0.976, -0.070, 19:33:01.968
76, 2557.80, -2985.68, -10551.79, -6854.07, -3833.17, -5954.88, 14051.11, 167474.00, 0.000, 0.000, 0.000, 19:33:01.968
77, 2636.97, -2301.58, -10514.35, -6818.11, -3834.51, -5980.01, 14061.01, 167502.30, 0.000, 0.000, 0.000, 19:33:01.968
78, 2644.55, -1999.90, -10530.06, -6866.32, -3894.90, -6047.71, 14083.83, 167568.27, 0.000, 0.000, 0.000, 19:33:01.968
79, 2568.37, -2304.11, -10575.03, -6929.40, -3930.13, -6065.28, 14087.59, 167585.16, 0.000, 0.000, 0.000, 19:33:01.968
80, 2522.22, -2911.85, -10584.71, -6923.83, -3893.52, -6013.29, 14062.00, 167529.47, 0.000, 0.000, 0.000, 19:33:01.969
81, 2552.39, -2979.44, -10553.46, -6859.59, -3834.96, -5963.76, 14042.01, 167480.77, 0.000, 0.000, 0.000, 19:33:01.969
82, 2628.77, -2300.82, -10511.65, -6821.10, -3831.02, -5979.56, 14050.40, 167507.00, 0.000, 0.000, 0.000, 19:33:01.969
83, 2635.07, -1996.68, -10524.32, -6865.02, -3883.70, -6033.36, 14073.17, 167572.88, 0.000, 0.000, 0.000, 19:33:01.969
84, 2562.94, -2297.31, -10561.44, -6922.98, -3917.25, -6045.68, 14074.09, 167587.25, 0.000, 0.000, 0.000, 19:33:01.993
85, 2525.68, -2903.83, -10571.86, -6912.52, -3877.78, -5990.89, 14051.94, 167535.19, -0.088, 0.972, -0.068, 19:33:01.993
86, 2565.87, -2966.68, -10537.60, -6843.97, -3819.24, -5940.74, 14032.83, 167487.27, 0.000, 0.000, 0.000, 19:33:01.993
87, 2644.39, -2282.05, -10494.30, -6800.79, -3815.04, -5958.53, 14040.43, 167512.59, 0.000, 0.000, 0.000, 19:33:01.993
88, 2646.42, -1978.55, -10505.34, -6842.29, -3872.24, -6017.54, 14062.22, 167577.14, 0.000, 0.000, 0.000, 19:33:01.994
89, 2576.17, -2278.11, -10549.20, -6902.24, -3902.50, -6030.08, 14063.18, 167591.77, 0.000, 0.000, 0.000, 19:33:01.994
90, 2539.02, -2883.35, -10557.78, -6893.77, -3863.81, -5974.87, 14038.53, 167537.41, 0.000, 0.000, 0.000, 19:33:01.994
91, 2576.19, -2956.82, -10522.89, -6827.59, -3806.19, -5925.13, 14020.56, 167490.53, 0.000, 0.000, 0.000, 19:33:01.994
92, 2653.64, -2285.67, -10482.45, -6788.96, -3804.96, -5945.59, 14029.05, 167516.73, 0.000, 0.000, 0.000, 19:33:01.995
93, 2657.09, -1976.27, -10493.16, -6833.62, -3861.71, -6008.17, 14050.44, 167580.95, 0.000, 0.000, 0.000, 19:33:01.995
94, 2582.43, -2277.29, -10539.21, -6895.20, -3892.80, -6026.59, 14052.45, 167596.86, -0.090, 0.972, -0.074, 19:33:01.995
95, 2537.26, -2889.45, -10553.51, -6893.66, -3859.32, -5980.34, 14030.26, 167545.11, 0.000, 0.000, 0.000, 19:33:01.995
96, 2574.21, -2959.50, -10520.25, -6831.74, -3801.81, -5931.01, 14008.75, 167494.38, 0.000, 0.000, 0.000, 19:33:01.996
97, 2653.35, -2288.22, -10480.44, -6795.35, -3799.42, -5952.29, 14015.93, 167518.86, 0.000, 0.000, 0.000, 19:33:01.996
98, 2659.12, -1976.70, -10498.55, -6840.46, -3855.47, -6013.31, 14038.55, 167584.39, 0.000, 0.000, 0.000, 19:33:01.996
99, 2581.02, -2282.43, -10532.12, -6907.27, -3892.60, -6033.76, 14040.43, 167600.28, 0.000, 0.000, 0.000, 19:33:01.996
100, 2534.89, -2894.80, -10545.64, -6908.61, -3861.93, -5989.55, 14016.85, 167547.02, 0.000, 0.000, 0.000, 19:33:01.997
101, 2564.17, -2961.20, -10531.76, -6850.74, -3809.97, -5948.18, 13996.55, 167497.48, 0.000, 0.000, 0.000, 19:33:01.998
102, 2639.20, -2288.42, -10498.48, -6817.06, -3810.91, -5972.97, 14006.52, 167524.83, 0.000, 0.000, 0.000, 19:33:01.998
103, 2638.15, -1977.73, -10515.11, -6868.04, -3872.69, -6039.58, 14028.40, 167589.70, 0.000, 0.000, 0.000, 19:33:01.998
104, 2563.03, -2273.75, -10526.06, -6930.58, -3908.05, -6055.85, 14029.63, 167605.20, -0.082, 0.972, -0.076, 19:33:01.998
105, 2516.61, -2885.92, -10536.88, -6928.28, -3877.04, -6007.46, 14005.33, 167551.23, 0.000, 0.000, 0.000, 19:33:01.999
106, 2549.62, -2963.86, -10535.16, -6868.06, -3824.74, -5962.33, 13985.96, 167502.38, 0.000, 0.000, 0.000, 19:33:02.432
107, 2634.94, -2296.28, -10506.68, -6825.60, -3816.16, -5978.02, 13995.54, 167528.53, 0.000, 0.000, 0.000, 19:33:02.432
108, 2643.90, -1968.90, -10512.49, -6863.80, -3865.89, -6032.40, 14019.82, 167595.75, 0.000, 0.000, 0.000, 19:33:02.432
109, 2575.61, -2262.02, -10516.90, -6918.36, -3892.22, -6041.54, 14019.46, 167609.73, 0.000, 0.000, 0.000, 19:33:02.433
110, 2536.01, -2873.67, -10526.49, -6911.81, -3852.19, -5987.27, 13995.16, 167555.91, 0.000, 0.000, 0.000, 19:33:02.433
111, 2571.77, -2947.79, -10511.62, -6845.87, -3793.74, -5937.61, 13974.87, 167505.94, 0.000, 0.000, 0.000, 19:33:02.433
112, 2647.47, -2285.29, -10475.99, -6805.82, -3790.45, -5958.89, 13983.16, 167530.86, 0.000, 0.000, 0.000, 19:33:02.433
113, 2650.11, -1967.04, -10492.74, -6847.41, -3848.52, -6020.20, 14004.93, 167595.66, 0.000, 0.000, 0.000, 19:33:02.433
114, 2580.31, -2265.06, -10507.71, -6907.40, -3884.67, -6037.03, 14008.98, 167614.23, -0.084, 0.980, -0.068, 19:33:02.433
115, 2528.63, -2888.72, -10518.78, -6904.81, -3856.03, -5990.25, 13984.99, 167560.83, 0.000, 0.000, 0.000, 19:33:02.433
116, 2556.32, -2958.39, -10507.26, -6841.80, -3806.79, -5946.61, 13964.61, 167510.73, 0.000, 0.000, 0.000, 19:33:02.434
117, 2644.88, -2284.66, -10468.33, -6795.02, -3803.06, -5961.52, 13972.39, 167534.80, 0.000, 0.000, 0.000, 19:33:02.434
118, 2661.22, -1955.15, -10483.08, -6833.51, -3853.80, -6015.21, 13997.80, 167603.14, 0.000, 0.000, 0.000, 19:33:02.434
119, 2587.73, -2256.70, -10500.27, -6897.06, -3889.40, -6031.13, 13999.84, 167619.81, 0.000, 0.000, 0.000, 19:33:02.434
120, 2545.93, -2872.13, -10510.55, -6895.04, -3855.41, -5980.14, 13975.58, 167566.06, 0.000, 0.000, 0.000, 19:33:02.434
121, 2581.40, -2943.01, -10496.54, -6833.75, -3801.50, -5936.22, 13954.01, 167514.58, 0.000, 0.000, 0.000, 19:33:02.434
122, 2664.44, -2278.96, -10465.15, -6796.79, -3798.90, -5959.29, 13963.22, 167539.91, 0.000, 0.000, 0.000, 19:33:02.434
123, 2667.75, -1958.06, -10481.36, -6849.65, -3860.64, -6027.17, 13986.38, 167605.73, 0.000, 0.000, 0.000, 19:33:02.435
124, 2586.68, -2264.25, -10492.18, -6917.95, -3903.67, -6050.37, 13989.80, 167623.89, -0.092, 0.984, -0.072, 19:33:02.435
125, 2532.25, -2888.83, -10504.74, -6915.88, -3872.57, -6003.30, 13966.69, 167571.53, 0.000, 0.000, 0.000, 19:33:02.435
126, 2560.53, -2952.80, -10506.55, -6857.31, -3817.25, -5954.48, 13944.31, 167518.94, 0.000, 0.000, 0.000, 19:33:02.435
127, 2638.47, -2293.65, -10485.05, -6818.38, -3811.80, -5973.28, 13953.99, 167544.45, 0.000, 0.000, 0.000, 19:33:02.435
128, 2645.40, -1961.57, -10484.58, -6863.48, -3867.88, -6040.16, 13976.84, 167610.23, 0.000, 0.000, 0.000, 19:33:02.435
129, 2569.31, -2257.50, -10487.08, -6925.84, -3910.12, -6063.16, 13980.10, 167628.58, 0.000, 0.000, 0.000, 19:33:02.435
130, 2526.60, -2875.40, -10497.59, -6918.67, -3876.24, -6010.41, 13956.25, 167575.56, 0.000, 0.000, 0.000, 19:33:02.436
131, 2560.59, -2941.18, -10500.89, -6853.22, -3816.16, -5959.00, 13934.55, 167523.41, 0.000, 0.000, 0.000, 19:33:02.436
132, 2637.53, -2283.81, -10478.18, -6810.20, -3810.73, -5974.87, 13941.77, 167546.25, 0.000, 0.000, 0.000, 19:33:02.436
133, 2645.82, -1950.99, -10473.16, -6849.65, -3860.79, -6031.75, 13964.30, 167611.66, 0.000, 0.000, 0.000, 19:33:02.436
134, 2573.11, -2249.03, -10473.98, -6911.54, -3893.76, -6045.19, 13966.89, 167629.52, -0.090, 0.974, -0.074, 19:33:02.436
135, 2524.58, -2869.52, -10486.10, -6907.69, -3860.68, -5993.87, 13945.01, 167578.89, 0.000, 0.000, 0.000, 19:33:02.436
136, 2556.46, -2941.24, -10480.98, -6837.15, -3800.60, -5941.74, 13923.53, 167527.30, 0.000, 0.000, 0.000, 19:33:02.436
137, 2631.56, -2283.99, -10452.10, -6793.07, -3794.68, -5962.24, 13931.93, 167551.22, 0.000, 0.000, 0.000, 19:33:02.436
138, 2648.12, -1927.75, -10460.26, -6830.07, -3848.95, -6022.86, 13956.14, 167618.09, 0.000, 0.000, 0.000, 19:33:02.437
139, 2584.60, -2217.99, -10466.18, -6888.27, -3881.65, -6036.22, 13959.09, 167636.53, 0.000, 0.000, 0.000, 19:33:02.437
140, 2535.09, -2844.91, -10478.68, -6893.75, -3852.81, -5993.42, 13936.92, 167585.53, 0.000, 0.000, 0.000, 19:33:02.437
141, 2563.79, -2936.26, -10481.09, -6837.33, -3802.97, -5949.52, 13914.74, 167532.89, 0.000, 0.000, 0.000, 19:33:02.437
142, 2645.73, -2283.61, -10460.19, -6795.38, -3802.68, -5971.80, 13923.30, 167556.72, 0.000, 0.000, 0.000, 19:33:02.437
143, 2658.36, -1936.00, -10456.41, -6840.57, -3862.74, -6037.36, 13944.76, 167621.00, -0.092, 0.978, -0.076, 19:33:02.437
144, 2589.81, -2233.36, -10457.20, -6904.34, -3898.68, -6057.90, 13948.29, 167640.14, 0.000, 0.000, 0.000, 19:33:02.437
145, 2539.92, -2856.06, -10467.63, -6905.55, -3866.65, -6011.08, 13924.35, 167587.55, 0.000, 0.000, 0.000, 19:33:02.438
146, 2563.57, -2931.74, -10478.12, -6850.09, -3810.88, -5964.88, 13904.59, 167537.22, 0.000, 0.000, 0.000, 19:33:02.438
147, 2636.30, -2277.51, -10468.86, -6818.04, -3803.98, -5985.80, 13913.04, 167560.77, 0.000, 0.000, 0.000, 19:33:02.438
148, 2642.49, -1929.49, -10452.70, -6861.96, -3856.15, -6048.40, 13934.84, 167625.27, 0.000, 0.000, 0.000, 19:33:02.438
149, 2567.90, -2218.68, -10448.48, -6925.49, -3891.33, -6065.77, 13937.81, 167643.95, 0.000, 0.000, 0.000, 19:33:02.438
150, 2522.19, -2837.46, -10458.76, -6923.54, -3855.79, -6014.16, 13914.00, 167591.72, 0.000, 0.000, 0.000, 19:33:02.438
151, 2551.21, -2917.30, -10469.02, -6859.17, -3796.89, -5960.34, 13894.09, 167540.98, 0.000, 0.000, 0.000, 19:33:02.438
152, 2632.12, -2269.75, -10458.76, -6812.95, -3788.51, -5970.87, 13901.53, 167563.22, 0.000, 0.000, 0.000, 19:33:02.439
153, 2649.24, -1907.81, -10443.07, -6847.37, -3839.78, -6023.04, 13924.89, 167629.27, -0.098, 0.986, -0.078, 19:33:02.439
154, 2581.09, -2208.62, -10438.49, -6910.13, -3875.86, -6039.08, 13927.95, 167648.11, 0.000, 0.000, 0.000, 19:33:02.439
155, 2533.21, -2836.35, -10450.33, -6911.23, -3847.38, -5990.11, 13905.60, 167597.23, 0.000, 0.000, 0.000, 19:33:02.439
156, 2564.01, -2907.76, -10457.82, -6847.46, -3795.13, -5940.76, 13885.26, 167545.66, 0.000, 0.000, 0.000, 19:33:02.439
157, 2646.31, -2262.76, -10441.30, -6803.11, -3792.17, -5960.92, 13894.40, 167569.44, 0.000, 0.000, 0.000, 19:33:02.439
158, 2657.71, -1912.50, -10433.15, -6844.42, -3844.48, -6023.28, 13916.73, 167634.59, 0.000, 0.000, 0.000, 19:33:02.439
159, 2582.43, -2203.86, -10431.89, -6911.70, -3889.18, -6050.21, 13919.46, 167653.45, 0.000, 0.000, 0.000, 19:33:02.439
160, 2529.61, -2826.29, -10443.67, -6915.34, -3867.50, -6006.07, 13897.04, 167602.67, 0.000, 0.000, 0.000, 19:33:02.440
161, 2560.79, -2909.75, -10453.64, -6853.54, -3812.51, -5954.71, 13876.39, 167551.05, 0.000, 0.000, 0.000, 19:33:02.440
162, 2633.55, -2271.03, -10445.60, -6815.99, -3813.39, -5978.51, 13885.13, 167573.95, 0.000, 0.000, 0.000, 19:33:02.440
163, 2643.50, -1912.88, -10428.54, -6858.21, -3870.58, -6042.44, 13906.67, 167637.88, -0.090, 0.986, -0.072, 19:33:02.440
164, 2575.50, -2207.95, -10424.21, -6923.77, -3914.71, -6067.05, 13910.34, 167657.69, 0.000, 0.000, 0.000, 19:33:02.440
165, 2526.64, -2833.17, -10434.06, -6927.68, -3884.87, -6022.52, 13885.98, 167605.06, 0.000, 0.000, 0.000, 19:33:02.440
166, 2556.08, -2905.93, -10444.92, -6867.89, -3828.07, -5974.04, 13865.35, 167553.25, 0.000, 0.000, 0.000, 19:33:02.440
167, 2634.62, -2261.35, -10437.59, -6824.73, -3817.70, -5987.96, 13874.11, 167576.00, 0.000, 0.000, 0.000, 19:33:02.440
168, 2648.84, -1899.50, -10421.52, -6866.41, -3869.91, -6045.86, 13897.82, 167642.19, 0.000, 0.000, 0.000, 19:33:02.440
169, 2581.96, -2186.83, -10414.12, -6929.09, -3902.35, -6060.09, 13899.45, 167660.08, 0.000, 0.000, 0.000, 19:33:02.440
170, 2531.07, -2813.10, -10424.09, -6933.51, -3871.25, -6012.64, 13875.72, 167608.14, 0.000, 0.000, 0.000, 19:33:02.441
171, 2555.34, -2908.54, -10435.94, -6871.86, -3816.72, -5960.45, 13855.91, 167556.88, 0.000, 0.000, 0.000, 19:33:02.441
172, 2634.96, -2268.12, -10428.47, -6827.65, -3808.49, -5973.30, 13864.18, 167578.89, 0.000, 0.000, 0.000, 19:33:02.441
173, 2653.38, -1888.63, -10410.73, -6864.73, -3857.04, -6026.52, 13886.27, 167643.63, -0.088, 0.984, -0.068, 19:33:02.441
174, 2585.00, -2173.57, -10404.78, -6922.67, -3892.42, -6040.76, 13889.51, 167663.45, 0.000, 0.000, 0.000, 19:33:02.441
175, 2529.52, -2798.68, -10418.19, -6920.52, -3864.46, -5989.80, 13869.26, 167615.14, 0.000, 0.000, 0.000, 19:33:02.441
176, 2558.05, -2895.22, -10430.06, -6856.31, -3807.62, -5935.26, 13849.34, 167563.83, 0.000, 0.000, 0.000, 19:33:02.441
177, 2645.75, -2257.66, -10421.10, -6808.59, -3800.31, -5949.72, 13856.14, 167584.33, 0.000, 0.000, 0.000, 19:33:02.441
178, 2665.76, -1884.90, -10404.02, -6845.09, -3857.55, -6016.62, 13878.67, 167649.56, 0.000, 0.000, 0.000, 19:33:02.442
179, 2592.38, -2181.71, -10397.47, -6909.84, -3902.26, -6043.84, 13880.86, 167668.50, 0.000, 0.000, 0.000, 19:33:02.442
180, 2530.13, -2818.04, -10409.41, -6920.75, -3883.75, -6009.18, 13858.44, 167618.20, 0.000, 0.000, 0.000, 19:33:02.442
181, 2558.85, -2911.69, -10420.90, -6859.95, -3827.29, -5959.00, 13837.70, 167565.97, 0.000, 0.000, 0.000, 19:33:02.442
182, 2642.04, -2280.35, -10413.72, -6811.87, -3815.44, -5970.06, 13845.85, 167587.50, 0.000, 0.000, 0.000, 19:33:02.442
183, 2654.18, -1897.64, -10396.67, -6850.76, -3869.91, -6032.11, 13868.32, 167652.47, -0.088, 0.990, -0.064, 19:33:02.442
184, 2582.21, -2191.34, -10391.75, -6916.03, -3911.94, -6056.03, 13872.54, 167673.64, 0.000, 0.000, 0.000, 19:33:02.442
185, 2525.99, -2824.86, -10402.01, -6920.23, -3886.97, -6010.83, 13849.14, 167622.52, 0.000, 0.000, 0.000, 19:33:02.443
186, 2550.11, -2912.03, -10413.92, -6859.73, -3823.80, -5958.33, 13828.82, 167570.38, 0.000, 0.000, 0.000, 19:33:02.443
187, 2627.49, -2288.28, -10404.76, -6820.84, -3813.30, -5973.59, 13834.41, 167589.00, 0.000, 0.000, 0.000, 19:33:02.443
188, 2648.41, -1886.46, -10387.15, -6856.62, -3862.14, -6029.29, 13856.58, 167653.56, 0.000, 0.000, 0.000, 19:33:02.443
189, 2577.63, -2175.65, -10382.79, -6920.93, -3902.61, -6049.23, 13861.93, 167675.81, 0.000, 0.000, 0.000, 19:33:02.443
190, 2525.84, -2807.65, -10395.08, -6920.70, -3871.10, -5999.86, 13840.89, 167626.86, 0.000, 0.000, 0.000, 19:33:02.443
191, 2556.64, -2890.68, -10408.20, -6854.12, -3809.65, -5940.00, 13822.05, 167575.94, 0.000, 0.000, 0.000, 19:33:02.444
192, 2637.71, -2261.01, -10400.53, -6812.50, -3802.86, -5953.45, 13829.45, 167596.25, -0.090, 0.984, -0.064, 19:33:02.444
193, 2657.40, -1887.81, -10382.27, -6850.30, -3857.60, -6013.33, 13851.31, 167660.63, 0.000, 0.000, 0.000, 19:33:02.444
194, 2592.94, -2173.75, -10376.42, -6908.77, -3892.35, -6029.63, 13855.64, 167682.31, 0.000, 0.000, 0.000, 19:33:02.444
195, 2540.43, -2802.73, -10386.54, -6910.20, -3863.68, -5979.02, 13832.85, 167631.66, 0.000, 0.000, 0.000, 19:33:02.444
196, 2571.10, -2884.94, -10397.67, -6846.32, -3807.93, -5924.26, 13811.86, 167578.63, 0.000, 0.000, 0.000, 19:33:02.444
197, 2653.06, -2259.92, -10393.54, -6801.01, -3802.19, -5940.91, 13822.54, 167601.95, 0.000, 0.000, 0.000, 19:33:02.444
198, 2668.87, -1870.13, -10376.82, -6836.33, -3861.64, -6005.76, 13845.88, 167667.89, 0.000, 0.000, 0.000, 19:33:02.444
199, 2595.98, -2155.54, -10370.63, -6907.14, -3912.65, -6036.40, 13849.32, 167689.06, 0.000, 0.000, 0.000, 19:33:02.445
200, 2542.76, -2787.53, -10382.68, -6919.05, -3890.95, -5995.05, 13827.93, 167640.27, 0.000, 0.000, 0.000, 19:33:02.445
201, 2564.75, -2888.11, -10392.24, -6868.09, -3843.96, -5954.26, 13804.79, 167584.95, 0.000, 0.000, 0.000, 19:33:02.445
202, 2639.63, -2272.52, -10384.87, -6830.42, -3844.88, -5978.87, 13811.25, 167603.91, -0.090, 0.976, -0.070, 19:33:02.445
203, 2653.42, -1892.16, -10367.21, -6872.13, -3901.97, -6044.20, 13833.23, 167668.28, 0.000, 0.000, 0.000, 19:33:02.445
204, 2584.40, -2170.51, -10361.62, -6940.40, -3945.24, -6073.17, 13837.72, 167690.47, 0.000, 0.000, 0.000, 19:33:02.445
205, 2526.33, -2796.74, -10372.59, -6946.21, -3918.08, -6031.66, 13815.48, 167640.94, 0.000, 0.000, 0.000, 19:33:02.445
206, 2549.53, -2889.72, -10383.32, -6884.65, -3860.15, -5982.38, 13793.66, 167586.73, 0.000, 0.000, 0.000, 19:33:02.446
207, 2626.98, -2276.03, -10376.82, -6841.49, -3848.77, -5998.11, 13801.29, 167606.52, 0.000, 0.000, 0.000, 19:33:02.446
208, 2640.70, -1877.01, -10359.27, -6873.27, -3893.94, -6055.18, 13824.04, 167671.72, 0.000, 0.000, 0.000, 19:33:02.446
209, 2568.22, -2161.82, -10355.14, -6932.71, -3927.54, -6076.57, 13830.68, 167696.02, 0.000, 0.000, 0.000, 19:33:02.446
210, 2512.60, -2793.54, -10367.36, -6932.01, -3894.77, -6026.37, 13810.16, 167648.27, 0.000, 0.000, 0.000, 19:33:02.446
211, 2535.00, -2893.93, -10378.74, -6873.76, -3836.39, -5973.86, 13788.72, 167594.17, 0.000, 0.000, 0.000, 19:33:02.446
212, 2620.23, -2280.41, -10368.39, -6823.90, -3822.19, -5981.66, 13792.84, 167610.05, -0.086, 0.984, -0.064, 19:33:02.446
213, 2647.34, -1865.92, -10351.41, -6854.12, -3866.32, -6029.41, 13816.42, 167675.81, 0.000, 0.000, 0.000, 19:33:02.446
214, 2583.33, -2146.82, -10346.89, -6914.65, -3897.23, -6039.69, 13823.30, 167700.42, 0.000, 0.000, 0.000, 19:33:02.446
215, 2529.68, -2778.37, -10357.78, -6911.96, -3860.17, -5981.73, 13801.93, 167651.80, 0.000, 0.000, 0.000, 19:33:02.447
216, 2561.76, -2876.58, -10367.77, -6844.64, -3797.72, -5919.03, 13779.47, 167596.56, 0.000, 0.000, 0.000, 19:33:02.447
217, 2648.01, -2262.58, -10360.23, -6791.67, -3784.28, -5923.17, 13786.20, 167615.08, 0.000, 0.000, 0.000, 19:33:02.447
218, 2669.96, -1858.86, -10344.36, -6824.70, -3836.77, -5979.25, 13810.49, 167681.75, 0.000, 0.000, 0.000, 19:33:02.447
219, 2608.43, -2137.23, -10338.49, -6886.10, -3876.62, -6001.33, 13815.72, 167705.00, 0.000, 0.000, 0.000, 19:33:02.447
220, 2556.64, -2770.41, -10350.11, -6889.50, -3854.27, -5961.32, 13794.89, 167657.09, 0.000, 0.000, 0.000, 19:33:02.447
221, 2580.58, -2869.81, -10362.13, -6829.46, -3802.34, -5914.63, 13773.70, 167603.23, 0.000, 0.000, 0.000, 19:33:02.447
222, 2658.87, -2258.11, -10352.68, -6785.45, -3798.95, -5937.07, 13777.41, 167618.44, -0.086, 0.980, -0.062, 19:33:02.447
223, 2678.36, -1853.38, -10335.36, -6822.18, -3858.05, -6006.16, 13800.08, 167683.34, 0.000, 0.000, 0.000, 19:33:02.448
224, 2611.87, -2129.94, -10330.04, -6890.35, -3904.96, -6036.94, 13805.87, 167707.41, 0.000, 0.000, 0.000, 19:33:02.448
225, 2554.94, -2762.76, -10341.97, -6901.23, -3888.94, -6001.47, 13785.01, 167659.72, 0.000, 0.000, 0.000, 19:33:02.448
226, 2576.17, -2866.25, -10354.49, -6845.71, -3839.90, -5957.77, 13764.00, 167605.80, 0.000, 0.000, 0.000, 19:33:02.448
227, 2656.37, -2260.34, -10347.74, -6801.30, -3828.56, -5972.79, 13770.48, 167623.44, 0.000, 0.000, 0.000, 19:33:02.913
228, 2674.74, -1850.81, -10330.15, -6840.10, -3879.26, -6034.95, 13792.93, 167688.02, 0.000, 0.000, 0.000, 19:33:02.914
229, 2603.51, -2131.31, -10324.47, -6907.58, -3919.71, -6059.27, 13798.54, 167712.20, 0.000, 0.000, 0.000, 19:33:02.915
230, 2548.03, -2762.50, -10335.25, -6911.20, -3883.86, -6006.90, 13777.12, 167663.84, 0.000, 0.000, 0.000, 19:33:02.915
231, 2567.39, -2869.32, -10346.82, -6853.16, -3824.96, -5953.05, 13755.42, 167609.00, 0.000, 0.000, 0.000, 19:33:02.916
232, 2642.38, -2264.28, -10341.08, -6808.92, -3812.74, -5965.70, 13762.93, 167627.50, -0.084, 0.978, -0.070, 19:33:02.916
233, 2660.95, -1850.03, -10324.02, -6846.18, -3863.52, -6024.31, 13786.11, 167692.86, 0.000, 0.000, 0.000, 19:33:02.916
234, 2588.51, -2130.81, -10316.87, -6910.76, -3901.43, -6045.19, 13790.24, 167715.59, 0.000, 0.000, 0.000, 19:33:02.916
235, 2532.88, -2762.90, -10327.85, -6911.49, -3870.83, -5994.11, 13769.03, 167667.73, 0.000, 0.000, 0.000, 19:33:02.917
236, 2559.10, -2868.33, -10338.71, -6846.72, -3807.60, -5933.31, 13746.68, 167612.23, 0.000, 0.000, 0.000, 19:33:02.917
237, 2642.42, -2263.87, -10330.91, -6791.38, -3794.07, -5938.81, 13752.04, 167628.27, 0.000, 0.000, 0.000, 19:33:02.917
238, 2667.77, -1832.66, -10314.30, -6818.20, -3843.52, -5995.14, 13775.89, 167694.31, 0.000, 0.000, 0.000, 19:33:02.918
239, 2604.09, -2106.58, -10308.42, -6881.77, -3885.90, -6019.15, 13781.93, 167719.33, 0.000, 0.000, 0.000, 19:33:02.918
240, 2548.10, -2743.50, -10319.55, -6886.26, -3862.72, -5976.01, 13760.87, 167671.73, 0.000, 0.000, 0.000, 19:33:02.918
241, 2570.76, -2866.77, -10331.83, -6823.70, -3805.45, -5923.48, 13739.82, 167617.36, -0.080, 0.978, -0.068, 19:33:02.918
242, 2650.05, -2270.00, -10325.59, -6780.00, -3797.36, -5942.52, 13746.28, 167634.44, 0.000, 0.000, 0.000, 19:33:02.918
243, 2677.60, -1842.59, -10306.23, -6813.68, -3845.26, -6001.87, 13767.47, 167697.67, 0.000, 0.000, 0.000, 19:33:02.918
244, 2608.96, -2121.11, -10298.23, -6881.70, -3890.14, -6031.10, 13771.31, 167720.47, 0.000, 0.000, 0.000, 19:33:02.919
245, 2548.17, -2756.33, -10310.32, -6892.12, -3868.46, -5993.22, 13751.11, 167673.91, 0.000, 0.000, 0.000, 19:33:02.919
246, 2570.20, -2858.70, -10322.84, -6836.93, -3816.18, -5945.47, 13729.92, 167619.19, 0.000, 0.000, 0.000, 19:33:02.919
247, 2651.81, -2262.33, -10315.60, -6791.04, -3805.47, -5955.69, 13735.35, 167634.97, 0.000, 0.000, 0.000, 19:33:02.919
248, 2676.89, -1838.45, -10298.97, -6821.71, -3849.35, -6011.10, 13759.26, 167700.86, 0.000, 0.000, 0.000, 19:33:02.920
249, 2607.42, -2119.59, -10291.26, -6892.67, -3893.11, -6039.98, 13763.80, 167724.53, 0.000, 0.000, 0.000, 19:33:02.920
250, 2543.72, -2760.15, -10303.17, -6906.04, -3870.63, -6001.17, 13743.42, 167677.78, 0.000, 0.000, 0.000, 19:33:02.920
251, 2564.86, -2861.20, -10315.22, -6852.11, -3814.71, -5948.83, 13721.24, 167621.92, -0.084, 0.980, -0.070, 19:33:02.921
252, 2638.69, -2276.48, -10310.17, -6810.29, -3803.80, -5962.91, 13728.20, 167638.72, 0.000, 0.000, 0.000, 19:33:02.921
253, 2655.45, -1836.31, -10292.06, -6850.92, -3860.03, -6026.72, 13750.01, 167702.41, 0.000, 0.000, 0.000, 19:33:02.921
254, 2587.84, -2107.95, -10284.98, -6920.86, -3903.49, -6054.66, 13755.46, 167727.02, 0.000, 0.000, 0.000, 19:33:02.922
255, 2526.06, -2751.50, -10297.20, -6932.93, -3874.81, -6009.60, 13735.91, 167681.19, 0.000, 0.000, 0.000, 19:33:02.922
0, 2547.18, -2868.71, -10308.58, -6872.09, -3814.57, -5949.59, 13713.31, 167625.00, 0.000, 0.000, 0.000, 19:33:02.923
1, 2630.64, -2285.02, -10301.58, -6816.43, -3795.97, -5954.55, 13718.65, 167639.91, 0.000, 0.000, 0.000, 19:33:02.924
2, 2657.02, -1830.03, -10282.43, -6843.72, -3842.78, -6009.31, 13739.80, 167702.89, 0.000, 0.000, 0.000, 19:33:02.924
3, 2592.87, -2102.74, -10278.05, -6906.04, -3889.63, -6033.85, 13747.75, 167730.41, 0.000, 0.000, 0.000, 19:33:02.925
4, 2530.75, -2752.89, -10292.13, -6915.32, -3873.74, -5996.28, 13729.02, 167685.70, 0.000, 0.000, 0.000, 19:33:02.925
5, 2548.61, -2872.82, -10305.79, -6861.56, -3822.84, -5949.27, 13707.47, 167630.17, -0.086, 0.978, -0.076, 19:33:02.925
6, 2629.12, -2289.80, -10298.88, -6810.04, -3810.06, -5958.13, 13711.88, 167643.91, 0.000, 0.000, 0.000, 19:33:02.925
7, 2658.49, -1817.62, -10280.75, -6837.15, -3857.89, -6016.58, 13733.45, 167707.48, 0.000, 0.000, 0.000, 19:33:02.925
8, 2598.97, -2080.63, -10276.08, -6898.17, -3895.28, -6039.58, 13741.83, 167735.58, 0.000, 0.000, 0.000, 19:33:02.925
9, 2540.63, -2726.53, -10287.05, -6902.06, -3870.74, -5996.39, 13721.42, 167689.23, 0.000, 0.000, 0.000, 19:33:02.925
10, 2562.36, -2853.83, -10300.29, -6838.76, -3815.60, -5946.64, 13700.55, 167634.56, 0.000, 0.000, 0.000, 19:33:02.925
11, 2644.90, -2261.88, -10294.97, -6786.86, -3805.43, -5962.69, 13707.07, 167650.44, 0.000, 0.000, 0.000, 19:33:02.926
12, 2672.51, -1814.40, -10277.49, -6816.12, -3852.97, -6021.67, 13730.03, 167715.27, 0.000, 0.000, 0.000, 19:33:02.926
13, 2606.28, -2083.61, -10270.38, -6883.17, -3894.95, -6049.75, 13736.13, 167741.16, 0.000, 0.000, 0.000, 19:33:02.926
14, 2541.48, -2726.64, -10282.29, -6899.33, -3869.89, -6010.05, 13716.64, 167695.83, 0.000, 0.000, 0.000, 19:33:02.926
15, 2555.41, -2855.35, -10296.46, -6851.57, -3813.57, -5960.92, 13696.19, 167641.34, -0.086, 0.986, -0.074, 19:33:02.927
16, 2630.29, -2284.21, -10291.68, -6812.21, -3806.59, -5973.57, 13702.58, 167656.77, 0.000, 0.000, 0.000, 19:33:02.927
17, 2654.49, -1826.50, -10272.10, -6845.78, -3855.50, -6030.81, 13723.48, 167719.45, 0.000, 0.000, 0.000, 19:33:02.927
18, 2584.38, -2096.37, -10264.64, -6915.05, -3896.60, -6055.78, 13729.58, 167745.34, 0.000, 0.000, 0.000, 19:33:02.927
19, 2513.99, -2744.03, -10274.78, -6932.30, -3874.92, -6015.44, 13707.94, 167697.84, 0.000, 0.000, 0.000, 19:33:02.927
20, 2532.65, -2856.42, -10286.45, -6872.98, -3816.29, -5957.01, 13684.59, 167640.30, 0.000, 0.000, 0.000, 19:33:02.927
21, 2620.99, -2274.42, -10282.29, -6817.15, -3797.23, -5957.08, 13691.69, 167656.05, 0.000, 0.000, 0.000, 19:33:02.927
22, 2652.86, -1813.78, -10264.41, -6844.86, -3840.21, -6007.84, 13714.45, 167720.47, 0.000, 0.000, 0.000, 19:33:02.927
23, 2589.45, -2079.47, -10256.23, -6908.50, -3877.18, -6030.10, 13720.04, 167745.98, 0.000, 0.000, 0.000, 19:33:02.928
24, 2529.08, -2722.24, -10269.42, -6918.92, -3855.27, -5986.18, 13701.98, 167702.19, 0.000, 0.000, 0.000, 19:33:02.928
25, 2552.66, -2846.16, -10282.50, -6860.55, -3796.71, -5930.63, 13680.54, 167646.42, -0.086, 0.986, -0.074, 19:33:02.929
26, 2636.57, -2273.04, -10280.53, -6809.39, -3784.19, -5942.57, 13689.64, 167664.11, 0.000, 0.000, 0.000, 19:33:02.929
27, 2666.67, -1804.41, -10262.56, -6834.07, -3835.02, -6004.59, 13711.95, 167728.27, 0.000, 0.000, 0.000, 19:33:02.929
28, 2600.98, -2065.90, -10254.02, -6895.45, -3885.56, -6041.32, 13717.04, 167753.75, 0.000, 0.000, 0.000, 19:33:02.930
29, 2542.15, -2708.61, -10265.02, -6901.93, -3867.30, -6008.24, 13696.75, 167708.16, 0.000, 0.000, 0.000, 19:33:02.930
30, 2560.59, -2839.59, -10275.68, -6842.18, -3815.00, -5962.31, 13672.32, 167649.41, 0.000, 0.000, 0.000, 19:33:02.931
31, 2641.66, -2272.52, -10269.08, -6790.50, -3802.84, -5974.20, 13676.25, 167661.80, 0.000, 0.000, 0.000, 19:33:02.931
32, 2671.61, -1804.37, -10253.33, -6819.61, -3846.22, -6031.42, 13700.75, 167727.75, 0.000, 0.000, 0.000, 19:33:02.931
33, 2608.76, -2062.33, -10246.55, -6885.50, -3886.66, -6058.42, 13708.15, 167755.56, 0.000, 0.000, 0.000, 19:33:02.931
34, 2544.12, -2705.43, -10255.78, -6893.48, -3861.40, -6014.65, 13686.67, 167708.89, -0.092, 0.986, -0.074, 19:33:02.932
35, 2559.57, -2840.28, -10271.14, -6833.46, -3797.34, -5956.43, 13667.15, 167654.80, 0.000, 0.000, 0.000, 19:33:02.932
36, 2625.82, -2287.86, -10265.13, -6789.05, -3783.41, -5964.61, 13671.11, 167666.86, 0.000, 0.000, 0.000, 19:33:02.932
37, 2647.65, -1807.27, -10247.58, -6817.75, -3827.69, -6019.82, 13693.08, 167730.30, 0.000, 0.000, 0.000, 19:33:02.932
38, 2588.51, -2060.74, -10241.88, -6882.93, -3865.04, -6044.00, 13701.46, 167759.16, 0.000, 0.000, 0.000, 19:33:02.932
39, 2528.00, -2703.62, -10250.33, -6897.14, -3842.40, -5998.85, 13679.29, 167711.69, 0.000, 0.000, 0.000, 19:33:02.932
40, 2551.32, -2835.48, -10262.16, -6839.12, -3783.84, -5938.17, 13656.38, 167654.13, 0.000, 0.000, 0.000, 19:33:02.934
41, 2634.80, -2269.57, -10260.63, -6788.81, -3766.65, -5942.17, 13665.54, 167671.00, 0.000, 0.000, 0.000, 19:33:02.934
42, 2663.90, -1799.81, -10243.65, -6822.22, -3812.43, -5997.78, 13689.08, 167736.09, 0.000, 0.000, 0.000, 19:33:02.934
43, 2610.08, -2051.15, -10235.67, -6884.02, -3851.56, -6017.74, 13695.99, 167763.66, 0.000, 0.000, 0.000, 19:33:02.935
44, 2549.75, -2695.73, -10247.51, -6896.70, -3833.66, -5978.56, 13677.30, 167719.84, -0.088, 0.992, -0.074, 19:33:02.935
45, 2569.29, -2837.60, -10259.36, -6841.18, -3777.76, -5923.97, 13653.94, 167661.80, 0.000, 0.000, 0.000, 19:33:02.935
46, 2649.42, -2282.20, -10253.88, -6791.89, -3766.58, -5934.30, 13658.57, 167673.91, 0.000, 0.000, 0.000, 19:33:02.936
47, 2675.48, -1800.68, -10234.39, -6826.63, -3821.19, -5998.98, 13679.33, 167736.06, 0.000, 0.000, 0.000, 19:33:02.936
48, 2608.09, -2055.27, -10228.25, -6897.17, -3872.91, -6033.16, 13687.85, 167765.58, 0.000, 0.000, 0.000, 19:33:02.936
49, 2541.26, -2701.83, -10239.58, -6911.20, -3855.47, -5997.69, 13668.56, 167721.31, 0.000, 0.000, 0.000, 19:33:02.936
50, 2557.89, -2842.36, -10253.71, -6854.32, -3798.28, -5944.11, 13647.39, 167665.30, 0.000, 0.000, 0.000, 19:33:02.936
51, 2636.03, -2290.09, -10250.04, -6803.51, -3785.18, -5953.12, 13653.67, 167679.11, 0.000, 0.000, 0.000, 19:33:02.936
52, 2666.54, -1811.23, -10231.02, -6827.38, -3832.43, -6012.75, 13675.09, 167741.98, 0.000, 0.000, 0.000, 19:33:02.936
53, 2603.20, -2070.38, -10224.60, -6892.12, -3874.83, -6042.41, 13683.60, 167771.45, 0.000, 0.000, 0.000, 19:33:02.937
54, 2531.09, -2716.54, -10236.61, -6910.96, -3855.07, -6008.95, 13664.81, 167727.84, -0.092, 0.988, -0.080, 19:33:02.937
55, 2547.67, -2842.05, -10247.74, -6857.02, -3798.59, -5959.85, 13640.40, 167668.45, 0.000, 0.000, 0.000, 19:33:02.937
56, 2625.95, -2296.89, -10240.29, -6806.53, -3782.65, -5971.63, 13642.63, 167677.91, 0.000, 0.000, 0.000, 19:33:02.937
57, 2651.21, -1803.27, -10225.57, -6834.65, -3830.13, -6034.21, 13668.14, 167744.89, 0.000, 0.000, 0.000, 19:33:02.937
58, 2587.97, -2047.80, -10219.58, -6899.11, -3870.79, -6062.73, 13677.34, 167775.42, 0.000, 0.000, 0.000, 19:33:02.937
59, 2520.74, -2694.37, -10230.55, -6912.54, -3851.56, -6023.33, 13658.01, 167731.53, 0.000, 0.000, 0.000, 19:33:02.937
60, 2538.87, -2839.99, -10244.18, -6856.31, -3794.52, -5969.97, 13636.13, 167674.59, 0.000, 0.000, 0.000, 19:33:02.937
61, 2622.08, -2284.93, -10240.16, -6802.98, -3771.74, -5972.48, 13641.78, 167687.44, 0.000, 0.000, 0.000, 19:33:02.938
62, 2656.06, -1800.14, -10223.44, -6827.59, -3813.97, -6024.78, 13665.50, 167752.63, 0.000, 0.000, 0.000, 19:33:02.938
63, 2600.71, -2049.86, -10213.43, -6887.04, -3850.18, -6042.17, 13671.18, 167779.59, 0.000, 0.000, 0.000, 19:33:02.938
64, 2540.36, -2687.24, -10221.74, -6893.84, -3824.18, -5991.90, 13649.72, 167733.66, -0.094, 0.984, -0.076, 19:33:02.938
65, 2562.16, -2820.92, -10234.19, -6833.06, -3767.50, -5933.49, 13626.70, 167675.61, 0.000, 0.000, 0.000, 19:33:02.939
66, 2650.67, -2270.45, -10231.33, -6779.75, -3750.76, -5937.11, 13633.42, 167688.97, 0.000, 0.000, 0.000, 19:33:02.939
67, 2680.56, -1782.22, -10215.95, -6809.84, -3798.41, -5994.60, 13658.46, 167755.33, 0.000, 0.000, 0.000, 19:33:02.939
68, 2615.69, -2029.00, -10208.85, -6882.48, -3847.00, -6029.92, 13666.82, 167785.28, 0.000, 0.000, 0.000, 19:33:02.940
69, 2552.35, -2675.44, -10217.79, -6897.48, -3831.11, -5992.17, 13645.54, 167739.75, 0.000, 0.000, 0.000, 19:33:02.940
70, 2570.74, -2826.02, -10231.31, -6843.57, -3778.16, -5939.10, 13623.25, 167682.31, 0.000, 0.000, 0.000, 19:33:02.940
71, 2650.94, -2281.08, -10225.34, -6792.90, -3763.27, -5945.52, 13626.18, 167692.03, 0.000, 0.000, 0.000, 19:33:02.941
72, 2676.82, -1783.87, -10208.24, -6821.80, -3816.94, -6007.46, 13649.20, 167756.41, 0.000, 0.000, 0.000, 19:33:02.941
73, 2611.60, -2026.21, -10202.48, -6888.83, -3866.11, -6043.55, 13659.06, 167788.08, 0.000, 0.000, 0.000, 19:33:02.941
74, 2543.54, -2674.32, -10214.12, -6906.22, -3852.19, -6011.99, 13640.64, 167745.52, -0.084, 0.980, -0.068, 19:33:02.942
75, 2555.54, -2827.12, -10227.46, -6853.94, -3797.65, -5960.05, 13617.98, 167687.59, 0.000, 0.000, 0.000, 19:33:02.942
76, 2635.45, -2282.76, -10222.10, -6802.84, -3780.80, -5966.22, 13621.58, 167697.72, 0.000, 0.000, 0.000, 19:33:02.942
77, 2658.90, -1784.79, -10204.26, -6833.29, -3831.29, -6029.20, 13643.97, 167761.39, 0.000, 0.000, 0.000, 19:33:02.943
78, 2585.07, -2030.63, -10196.51, -6911.25, -3883.03, -6069.10, 13651.80, 167791.13, 0.000, 0.000, 0.000, 19:33:02.943
79, 2513.81, -2677.45, -10207.75, -6927.27, -3865.09, -6031.31, 13633.02, 167748.31, 0.000, 0.000, 0.000, 19:33:02.943
80, 2533.15, -2825.71, -10222.32, -6868.49, -3810.55, -5973.48, 13611.45, 167691.39, 0.000, 0.000, 0.000, 19:33:02.943
81, 2616.94, -2288.51, -10217.50, -6814.80, -3794.90, -5977.35, 13615.41, 167701.31, 0.000, 0.000, 0.000, 19:33:02.943
82, 2643.03, -1784.92, -10198.72, -6844.42, -3845.22, -6036.89, 13636.73, 167763.78, 0.000, 0.000, 0.000, 19:33:02.943
83, 2580.42, -2029.52, -10191.70, -6912.21, -3889.58, -6063.22, 13645.72, 167794.88, -0.086, 0.980, -0.076, 19:33:02.943
84, 2520.74, -2677.27, -10202.32, -6924.66, -3868.42, -6020.46, 13626.85, 167752.03, 0.000, 0.000, 0.000, 19:33:02.943
85, 2541.30, -2825.91, -10216.40, -6866.46, -3813.77, -5963.94, 13604.75, 167694.67, 0.000, 0.000, 0.000, 19:33:02.944
86, 2624.97, -2294.25, -10212.60, -6816.37, -3799.95, -5969.86, 13609.24, 167704.97, 0.000, 0.000, 0.000, 19:33:02.944
87, 2654.74, -1790.87, -10195.95, -6844.71, -3850.40, -6024.87, 13632.64, 167769.34, 0.000, 0.000, 0.000, 19:33:02.944
88, 2596.71, -2029.40, -10188.28, -6909.19, -3897.72, -6052.79, 13641.11, 167800.08, 0.000, 0.000, 0.000, 19:33:02.944
89, 2535.72, -2674.45, -10200.49, -6920.79, -3884.53, -6015.50, 13623.99, 167759.31, 0.000, 0.000, 0.000, 19:33:02.945
90, 2553.87, -2821.93, -10212.69, -6864.56, -3828.79, -5963.76, 13600.01, 167699.72, 0.000, 0.000, 0.000, 19:33:02.946
91, 2638.47, -2289.24, -10208.87, -6810.26, -3810.86, -5969.86, 13604.41, 167709.73, 0.000, 0.000, 0.000, 19:33:03.392
92, 2672.89, -1779.98, -10190.09, -6831.21, -3855.88, -6025.07, 13625.87, 167772.36, 0.000, 0.000, 0.000, 19:33:03.393
93, 2615.69, -2017.07, -10181.38, -6893.52, -3899.06, -6051.40, 13633.76, 167802.63, -0.090, 0.978, -0.072, 19:33:03.393
94, 2547.85, -2662.74, -10195.35, -6909.13, -3883.08, -6013.63, 13618.34, 167763.42, 0.000, 0.000, 0.000, 19:33:03.393
95, 2565.56, -2813.46, -10210.37, -6853.85, -3830.37, -5960.72, 13596.99, 167706.27, 0.000, 0.000, 0.000, 19:33:03.393
96, 2644.01, -2282.49, -10204.26, -6806.78, -3819.02, -5968.47, 13598.71, 167713.33, 0.000, 0.000, 0.000, 19:33:03.393
97, 2674.25, -1771.55, -10188.39, -6833.38, -3866.72, -6025.78, 13623.12, 167778.88, 0.000, 0.000, 0.000, 19:33:03.393
98, 2610.59, -2008.71, -10179.59, -6898.06, -3911.94, -6057.64, 13631.05, 167809.52, 0.000, 0.000, 0.000, 19:33:03.393
99, 2542.69, -2654.54, -10190.14, -6909.82, -3891.13, -6018.70, 13612.41, 167767.41, 0.000, 0.000, 0.000, 19:33:03.394
100, 2556.37, -2814.58, -10204.91, -6855.26, -3833.88, -5963.22, 13590.84, 167709.92, 0.000, 0.000, 0.000, 19:33:03.394
101, 2636.37, -2285.89, -10201.94, -6804.65, -3816.60, -5968.74, 13595.54, 167719.70, 0.000, 0.000, 0.000, 19:33:03.394
102, 2666.18, -1775.89, -10184.59, -6833.75, -3867.37, -6030.21, 13618.11, 167783.09, 0.000, 0.000, 0.000, 19:33:03.394
103, 2604.05, -2005.82, -10176.39, -6900.45, -3913.37, -6062.17, 13626.83, 167814.50, -0.092, 0.974, -0.066, 19:33:03.394
104, 2537.71, -2649.11, -10186.74, -6916.03, -3891.08, -6018.18, 13608.48, 167772.56, 0.000, 0.000, 0.000, 19:33:03.394
105, 2549.35, -2814.00, -10201.54, -6864.20, -3833.66, -5960.07, 13586.93, 167714.98, 0.000, 0.000, 0.000, 19:33:03.394
106, 2626.73, -2290.67, -10195.39, -6812.01, -3821.90, -5968.79, 13588.30, 167721.31, 0.000, 0.000, 0.000, 19:33:03.395
107, 2655.59, -1768.78, -10178.83, -6839.99, -3871.23, -6026.92, 13611.68, 167785.58, 0.000, 0.000, 0.000, 19:33:03.395
108, 2594.79, -1994.98, -10171.63, -6905.73, -3914.15, -6057.68, 13621.29, 167817.88, 0.000, 0.000, 0.000, 19:33:03.395
109, 2532.70, -2640.50, -10182.49, -6920.14, -3894.30, -6022.27, 13603.03, 167776.34, 0.000, 0.000, 0.000, 19:33:03.395
110, 2548.79, -2808.85, -10195.66, -6867.51, -3841.86, -5973.26, 13579.38, 167716.69, 0.000, 0.000, 0.000, 19:33:03.395
111, 2627.02, -2288.93, -10190.70, -6813.77, -3825.19, -5983.61, 13581.70, 167723.59, 0.000, 0.000, 0.000, 19:33:03.395
112, 2661.89, -1764.89, -10173.84, -6837.17, -3873.29, -6042.64, 13605.19, 167787.86, 0.000, 0.000, 0.000, 19:33:03.395
113, 2607.13, -1988.50, -10165.86, -6906.00, -3919.13, -6073.53, 13614.69, 167820.48, -0.088, 0.974, -0.072, 19:33:03.396
114, 2540.32, -2639.56, -10176.59, -6923.25, -3901.07, -6035.60, 13596.77, 167779.39, 0.000, 0.000, 0.000, 19:33:03.396
115, 2550.76, -2815.29, -10190.07, -6868.06, -3844.14, -5980.19, 13573.50, 167720.09, 0.000, 0.000, 0.000, 19:33:03.396
116, 2633.44, -2295.61, -10186.83, -6813.33, -3824.07, -5978.06, 13577.61, 167728.63, 0.000, 0.000, 0.000, 19:33:03.397
117, 2666.63, -1771.31, -10170.13, -6840.26, -3866.63, -6030.88, 13601.30, 167793.05, 0.000, 0.000, 0.000, 19:33:03.397
118, 2601.34, -2000.91, -10162.13, -6908.16, -3910.80, -6058.08, 13610.94, 167825.83, 0.000, 0.000, 0.000, 19:33:03.397
119, 2531.76, -2650.67, -10172.48, -6923.94, -3886.61, -6014.76, 13592.77, 167784.64, 0.000, 0.000, 0.000, 19:33:03.397
120, 2544.14, -2812.07, -10185.29, -6863.64, -3821.54, -5954.28, 13568.92, 167724.78, 0.000, 0.000, 0.000, 19:33:03.398
121, 2619.31, -2299.37, -10181.80, -6809.68, -3802.12, -5959.22, 13572.69, 167733.20, 0.000, 0.000, 0.000, 19:33:03.398
122, 2649.20, -1768.38, -10162.78, -6837.89, -3853.26, -6022.25, 13593.75, 167795.25, 0.000, 0.000, 0.000, 19:33:03.398
123, 2593.27, -1997.62, -10156.83, -6897.39, -3895.15, -6050.59, 13605.39, 167829.98, -0.088, 0.976, -0.078, 19:33:03.398
124, 2528.16, -2650.74, -10167.61, -6908.45, -3871.46, -6004.42, 13587.36, 167788.42, 0.000, 0.000, 0.000, 19:33:03.399
125, 2549.33, -2808.23, -10180.97, -6846.47, -3807.82, -5938.77, 13563.66, 167727.84, 0.000, 0.000, 0.000, 19:33:03.399
126, 2631.09, -2315.84, -10178.40, -6792.99, -3787.06, -5937.11, 13567.22, 167734.41, 0.000, 0.000, 0.000, 19:33:03.399
127, 2660.60, -1782.42, -10161.04, -6821.95, -3838.89, -5997.35, 13588.90, 167796.16, 0.000, 0.000, 0.000, 19:33:03.400
128, 2609.21, -2002.74, -10153.50, -6886.33, -3886.05, -6029.07, 13598.38, 167828.38, 0.000, 0.000, 0.000, 19:33:03.400
129, 2540.99, -2650.36, -10164.63, -6906.96, -3872.44, -5999.52, 13580.88, 167787.36, 0.000, 0.000, 0.000, 19:33:03.400
130, 2554.58, -2810.46, -10179.88, -6853.31, -3815.69, -5950.50, 13558.77, 167728.25, 0.000, 0.000, 0.000, 19:33:03.400
131, 2633.95, -2311.75, -10173.51, -6798.91, -3797.49, -5959.80, 13558.59, 167730.97, 0.000, 0.000, 0.000, 19:33:03.401
132, 2666.99, -1764.69, -10157.08, -6823.67, -3845.48, -6023.62, 13582.08, 167794.58, -0.088, 0.978, -0.082, 19:33:03.401
133, 2605.68, -1983.54, -10149.66, -6895.42, -3896.49, -6062.96, 13592.39, 167828.14, 0.000, 0.000, 0.000, 19:33:03.401
134, 2534.67, -2635.85, -10161.06, -6919.03, -3884.08, -6028.29, 13575.42, 167788.19, 0.000, 0.000, 0.000, 19:33:03.401
135, 2548.75, -2805.72, -10173.66, -6861.85, -3824.18, -5967.36, 13551.17, 167727.03, 0.000, 0.000, 0.000, 19:33:03.401
136, 2629.48, -2300.42, -10170.74, -6804.05, -3801.05, -5963.89, 13554.79, 167734.06, 0.000, 0.000, 0.000, 19:33:03.401
137, 2661.27, -1761.12, -10154.89, -6828.26, -3845.64, -6018.48, 13579.49, 167799.25, 0.000, 0.000, 0.000, 19:33:03.402
138, 2599.95, -1968.50, -10144.41, -6895.38, -3889.29, -6046.57, 13587.65, 167831.27, 0.000, 0.000, 0.000, 19:33:03.402
139, 2532.41, -2607.31, -10154.31, -6911.74, -3867.08, -6003.41, 13570.03, 167791.33, 0.000, 0.000, 0.000, 19:33:03.402
140, 2542.98, -2783.40, -10168.32, -6862.72, -3814.53, -5948.83, 13547.26, 167732.27, 0.000, 0.000, 0.000, 19:33:03.402
141, 2619.62, -2275.79, -10164.86, -6813.19, -3800.27, -5957.43, 13550.32, 167738.91, 0.000, 0.000, 0.000, 19:33:03.402
142, 2651.21, -1734.94, -10150.73, -6837.76, -3846.38, -6016.44, 13576.52, 167805.81, -0.096, 0.988, -0.072, 19:33:03.402
143, 2596.98, -1935.24, -10140.83, -6898.80, -3888.91, -6043.78, 13585.75, 167839.42, 0.000, 0.000, 0.000, 19:33:03.403
144, 2528.21, -2585.14, -10150.40, -6916.66, -3872.04, -6003.86, 13568.04, 167799.86, 0.000, 0.000, 0.000, 19:33:03.403
145, 2538.69, -2785.16, -10163.85, -6863.44, -3810.95, -5942.19, 13544.73, 167740.06, 0.000, 0.000, 0.000, 19:33:03.403
146, 2621.81, -2285.38, -10160.39, -6807.02, -3788.75, -5938.03, 13547.46, 167745.98, 0.000, 0.000, 0.000, 19:33:03.403
147, 2659.21, -1748.00, -10145.30, -6828.95, -3832.59, -5991.81, 13572.67, 167811.73, 0.000, 0.000, 0.000, 19:33:03.403
148, 2604.38, -1956.38, -10134.77, -6893.10, -3880.60, -6025.81, 13581.08, 167844.42, 0.000, 0.000, 0.000, 19:33:03.404
149, 2533.99, -2607.98, -10144.00, -6910.76, -3871.01, -5997.53, 13562.34, 167803.66, 0.000, 0.000, 0.000, 19:33:03.404
150, 2543.70, -2799.87, -10159.90, -6856.82, -3819.94, -5948.54, 13540.44, 167745.02, 0.000, 0.000, 0.000, 19:33:03.404
151, 2627.43, -2302.88, -10157.21, -6797.72, -3800.65, -5950.44, 13543.37, 167750.59, 0.000, 0.000, 0.000, 19:33:03.404
152, 2663.30, -1755.08, -10139.89, -6818.82, -3847.23, -6010.74, 13565.68, 167813.11, -0.092, 0.988, -0.076, 19:33:03.404
153, 2603.89, -1960.38, -10130.37, -6888.41, -3897.07, -6052.79, 13574.42, 167845.92, 0.000, 0.000, 0.000, 19:33:03.404
154, 2534.15, -2609.74, -10140.29, -6912.57, -3886.79, -6027.06, 13556.33, 167805.56, 0.000, 0.000, 0.000, 19:33:03.404
155, 2542.87, -2801.14, -10154.87, -6859.86, -3830.80, -5974.04, 13533.22, 167745.44, 0.000, 0.000, 0.000, 19:33:03.405
156, 2622.11, -2311.59, -10150.51, -6804.14, -3807.44, -5974.08, 13534.09, 167748.47, 0.000, 0.000, 0.000, 19:33:03.405
157, 2654.45, -1755.37, -10135.20, -6825.82, -3850.02, -6027.24, 13558.28, 167812.56, 0.000, 0.000, 0.000, 19:33:03.405
158, 2595.80, -1957.83, -10128.49, -6890.46, -3892.35, -6053.08, 13570.35, 167848.83, 0.000, 0.000, 0.000, 19:33:03.405
159, 2527.94, -2607.98, -10137.86, -6910.98, -3872.48, -6012.33, 13552.29, 167808.70, 0.000, 0.000, 0.000, 19:33:03.405
160, 2541.82, -2797.77, -10152.25, -6856.87, -3807.24, -5950.84, 13529.44, 167748.88, 0.000, 0.000, 0.000, 19:33:03.406
161, 2620.83, -2308.87, -10150.08, -6804.00, -3781.71, -5949.03, 13532.91, 167754.47, 0.000, 0.000, 0.000, 19:33:03.406
162, 2654.00, -1744.75, -10134.48, -6831.18, -3828.65, -6005.53, 13557.41, 167819.02, -0.096, 0.988, -0.078, 19:33:03.406
163, 2599.60, -1931.84, -10122.81, -6896.63, -3874.23, -6035.69, 13565.54, 167851.73, 0.000, 0.000, 0.000, 19:33:03.407
164, 2534.20, -2578.79, -10129.94, -6915.34, -3861.13, -6001.44, 13545.89, 167810.59, 0.000, 0.000, 0.000, 19:33:03.407
165, 2546.82, -2776.98, -10146.44, -6860.55, -3801.56, -5942.28, 13525.33, 167753.13, 0.000, 0.000, 0.000, 19:33:03.407
166, 2630.91, -2278.78, -10143.06, -6804.00, -3776.26, -5937.20, 13527.61, 167757.41, 0.000, 0.000, 0.000, 19:33:03.408
167, 2666.23, -1729.60, -10125.09, -6828.86, -3825.10, -5995.50, 13550.23, 167820.38, 0.000, 0.000, 0.000, 19:33:03.408
168, 2610.30, -1926.36, -10116.33, -6897.84, -3876.53, -6032.02, 13561.34, 167856.81, 0.000, 0.000, 0.000, 19:33:03.409
169, 2543.16, -2575.52, -10126.21, -6919.18, -3866.38, -6000.37, 13544.67, 167819.08, 0.000, 0.000, 0.000, 19:33:03.409
170, 2554.09, -2775.68, -10139.13, -6866.72, -3814.46, -5945.99, 13520.21, 167757.95, 0.000, 0.000, 0.000, 19:33:03.409
171, 2634.24, -2294.61, -10136.99, -6808.81, -3796.31, -5946.17, 13523.21, 167763.09, 0.000, 0.000, 0.000, 19:33:03.410
172, 2668.40, -1739.35, -10120.11, -6832.03, -3846.82, -6009.62, 13546.23, 167826.19, -0.098, 0.986, -0.072, 19:33:03.410
173, 2612.94, -1933.49, -10110.45, -6898.80, -3897.85, -6051.27, 13556.09, 167861.23, 0.000, 0.000, 0.000, 19:33:03.410
174, 2541.10, -2587.01, -10120.65, -6919.61, -3886.97, -6020.64, 13539.41, 167823.53, 0.000, 0.000, 0.000, 19:33:03.410
175, 2549.46, -2788.18, -10137.32, -6866.37, -3828.38, -5966.40, 13518.09, 167765.30, 0.000, 0.000, 0.000, 19:33:03.411
176, 2626.69, -2311.84, -10134.62, -6810.93, -3802.99, -5965.28, 13519.70, 167768.48, 0.000, 0.000, 0.000, 19:33:03.411
177, 2661.06, -1749.90, -10117.81, -6831.41, -3847.58, -6020.75, 13542.34, 167831.05, 0.000, 0.000, 0.000, 19:33:03.411
178, 2607.44, -1940.87, -10108.11, -6891.62, -3887.15, -6052.49, 13552.40, 167866.09, 0.000, 0.000, 0.000, 19:33:03.412
179, 2534.29, -2598.99, -10118.01, -6913.93, -3868.53, -6019.79, 13535.48, 167827.69, 0.000, 0.000, 0.000, 19:33:03.412
180, 2542.24, -2809.37, -10130.53, -6862.03, -3807.82, -5960.90, 13509.91, 167764.55, 0.000, 0.000, 0.000, 19:33:03.412
181, 2620.97, -2340.90, -10127.71, -6805.39, -3784.87, -5959.33, 13511.32, 167766.91, -0.098, 0.980, -0.072, 19:33:03.413
182, 2656.28, -1765.65, -10111.12, -6825.98, -3826.66, -6014.99, 13534.41, 167829.55, 0.000, 0.000, 0.000, 19:33:03.413
183, 2607.00, -1944.07, -10102.72, -6889.30, -3873.20, -6047.96, 13546.10, 167866.33, 0.000, 0.000, 0.000, 19:33:03.413
184, 2538.49, -2591.86, -10111.64, -6911.14, -3859.16, -6014.88, 13528.37, 167827.59, 0.000, 0.000, 0.000, 19:33:03.414
185, 2545.68, -2782.59, -10125.65, -6861.85, -3802.79, -5959.96, 13504.57, 167766.27, 0.000, 0.000, 0.000, 19:33:03.414
186, 2625.93, -2308.96, -10122.12, -6804.07, -3777.87, -5956.00, 13505.28, 167767.89, 0.000, 0.000, 0.000, 19:33:03.414
187, 2663.59, -1737.94, -10104.69, -6822.51, -3822.13, -6011.97, 13527.57, 167829.83, 0.000, 0.000, 0.000, 19:33:03.415
188, 2610.35, -1913.31, -10094.58, -6887.96, -3873.29, -6049.97, 13537.65, 167865.42, 0.000, 0.000, 0.000, 19:33:03.415
189, 2539.07, -2564.42, -10106.68, -6915.09, -3865.00, -6018.41, 13523.56, 167830.48, 0.000, 0.000, 0.000, 19:33:03.415
190, 2548.19, -2779.31, -10122.23, -6867.26, -3809.18, -5956.92, 13501.48, 167771.31, 0.000, 0.000, 0.000, 19:33:03.415
191, 2625.41, -2303.70, -10119.17, -6814.89, -3784.19, -5950.73, 13502.53, 167773.33, -0.090, 0.984, -0.074, 19:33:03.415
192, 2662.83, -1730.52, -10099.59, -6834.63, -3825.52, -6003.70, 13522.83, 167833.41, 0.000, 0.000, 0.000, 19:33:03.416
193, 2609.52, -1907.63, -10091.05, -6902.11, -3873.58, -6035.57, 13535.17, 167871.56, 0.000, 0.000, 0.000, 19:33:03.416
194, 2537.33, -2556.23, -10101.74, -6927.57, -3863.86, -6004.21, 13520.10, 167836.20, 0.000, 0.000, 0.000, 19:33:03.416
195, 2548.12, -2761.49, -10115.30, -6869.83, -3806.03, -5949.18, 13496.05, 167775.08, 0.000, 0.000, 0.000, 19:33:03.416
196, 2631.31, -2294.67, -10114.12, -6808.88, -3784.40, -5951.71, 13498.71, 167778.42, 0.000, 0.000, 0.000, 19:33:03.416
197, 2669.89, -1725.85, -10097.13, -6827.90, -3828.79, -6014.03, 13521.37, 167840.67, 0.000, 0.000, 0.000, 19:33:03.417
198, 2614.91, -1900.08, -10086.00, -6892.09, -3878.01, -6054.86, 13531.05, 167876.23, 0.000, 0.000, 0.000, 19:33:03.417
199, 2540.97, -2551.03, -10093.85, -6914.27, -3867.81, -6027.75, 13513.01, 167838.13, 0.000, 0.000, 0.000, 19:33:03.417
200, 2548.95, -2776.85, -10106.56, -6859.71, -3810.97, -5971.36, 13487.78, 167775.56, 0.000, 0.000, 0.000, 19:33:03.417
201, 2632.79, -2318.66, -10105.96, -6794.84, -3783.97, -5963.91, 13490.71, 167778.77, -0.092, 0.982, -0.070, 19:33:03.418
202, 2667.86, -1748.26, -10090.96, -6813.35, -3817.79, -6014.76, 13515.00, 167842.38, 0.000, 0.000, 0.000, 19:33:03.418
203, 2610.97, -1928.78, -10082.02, -6879.64, -3859.07, -6048.25, 13526.56, 167879.77, 0.000, 0.000, 0.000, 19:33:03.418
204, 2534.53, -2579.10, -10092.57, -6904.25, -3844.66, -6012.75, 13510.82, 167843.58, 0.000, 0.000, 0.000, 19:33:03.419
205, 2538.17, -2780.78, -10107.66, -6857.58, -3789.76, -5956.56, 13486.95, 167782.05, 0.000, 0.000, 0.000, 19:33:03.419
206, 2623.58, -2330.80, -10103.19, -6796.03, -3760.95, -5951.11, 13485.46, 167780.28, 0.000, 0.000, 0.000, 19:33:03.419
207, 2663.41, -1748.15, -10087.36, -6816.07, -3803.42, -6007.63, 13508.57, 167842.58, 0.000, 0.000, 0.000, 19:33:03.419
208, 2608.31, -1916.19, -10076.66, -6885.43, -3858.49, -6048.14, 13518.45, 167878.66, 0.000, 0.000, 0.000, 19:33:03.420
209, 2539.31, -2565.60, -10085.64, -6908.83, -3850.36, -6016.40, 13501.59, 167841.77, 0.000, 0.000, 0.000, 19:33:03.420
210, 2546.67, -2773.61, -10102.03, -6859.88, -3801.05, -5962.91, 13479.53, 167782.09, 0.000, 0.000, 0.000, 19:33:03.420
211, 2627.47, -2323.60, -10100.73, -6801.39, -3779.08, -5959.76, 13481.14, 167783.39, -0.094, 0.982, -0.066, 19:33:03.872
212, 2667.55, -1739.41, -10085.73, -6822.02, -3824.94, -6016.31, 13505.26, 167846.84, 0.000, 0.000, 0.000, 19:33:03.872
213, 2616.58, -1899.03, -10074.91, -6892.79, -3874.88, -6052.83, 13515.52, 167883.59, 0.000, 0.000, 0.000, 19:33:03.872
214, 2542.22, -2547.52, -10083.45, -6922.20, -3865.33, -6021.92, 13498.80, 167847.16, 0.000, 0.000, 0.000, 19:33:03.872
215, 2545.95, -2764.13, -10096.73, -6879.08, -3808.76, -5964.36, 13474.10, 167785.06, 0.000, 0.000, 0.000, 19:33:03.872
216, 2628.32, -2310.25, -10093.56, -6822.44, -3782.88, -5959.85, 13474.03, 167784.92, 0.000, 0.000, 0.000, 19:33:03.873
217, 2668.64, -1732.17, -10078.40, -6834.47, -3822.53, -6013.29, 13498.64, 167848.98, 0.000, 0.000, 0.000, 19:33:03.873
218, 2615.56, -1895.00, -10068.59, -6898.44, -3875.39, -6053.05, 13510.53, 167887.75, 0.000, 0.000, 0.000, 19:33:03.873
219, 2547.94, -2538.49, -10077.66, -6917.66, -3867.97, -6026.54, 13494.71, 167852.91, 0.000, 0.000, 0.000, 19:33:03.873
220, 2553.82, -2751.63, -10091.81, -6863.19, -3812.05, -5973.19, 13470.86, 167791.92, 0.000, 0.000, 0.000, 19:33:03.873
221, 2637.84, -2294.99, -10090.74, -6798.31, -3784.42, -5969.50, 13472.87, 167793.67, -0.088, 0.976, -0.074, 19:33:03.873
222, 2680.35, -1715.76, -10073.51, -6812.23, -3821.46, -6022.10, 13495.18, 167855.53, 0.000, 0.000, 0.000, 19:33:03.873
223, 2629.01, -1882.71, -10061.82, -6877.72, -3867.79, -6058.17, 13505.24, 167892.58, 0.000, 0.000, 0.000, 19:33:03.873
224, 2552.97, -2533.10, -10071.07, -6904.25, -3855.25, -6029.34, 13489.57, 167857.73, 0.000, 0.000, 0.000, 19:33:03.874
225, 2548.39, -2763.57, -10088.17, -6860.93, -3802.28, -5979.52, 13468.04, 167798.86, 0.000, 0.000, 0.000, 19:33:03.874
226, 2619.98, -2324.72, -10087.25, -6805.61, -3774.94, -5977.44, 13469.25, 167799.22, 0.000, 0.000, 0.000, 19:33:03.874
227, 2656.04, -1739.86, -10068.59, -6822.85, -3817.32, -6033.54, 13489.70, 167858.58, 0.000, 0.000, 0.000, 19:33:03.874
228, 2610.17, -1889.28, -10057.66, -6887.40, -3866.38, -6069.77, 13500.39, 167896.23, 0.000, 0.000, 0.000, 19:33:03.874
229, 2540.59, -2538.64, -10066.00, -6908.19, -3853.93, -6037.25, 13483.60, 167860.25, 0.000, 0.000, 0.000, 19:33:03.874
230, 2548.05, -2768.22, -10081.04, -6854.36, -3796.33, -5977.46, 13459.64, 167798.63, -0.090, 0.982, -0.078, 19:33:03.874
231, 2633.10, -2321.97, -10078.94, -6793.95, -3768.62, -5971.18, 13459.62, 167797.42, 0.000, 0.000, 0.000, 19:33:03.874
232, 2676.35, -1728.51, -10063.31, -6807.80, -3807.49, -6025.67, 13483.20, 167859.78, 0.000, 0.000, 0.000, 19:33:03.875
233, 2624.36, -1876.14, -10053.66, -6876.87, -3858.29, -6064.56, 13495.67, 167899.22, 0.000, 0.000, 0.000, 19:33:03.875
234, 2546.44, -2525.93, -10063.78, -6907.47, -3852.50, -6037.90, 13481.05, 167865.58, 0.000, 0.000, 0.000, 19:33:03.875
235, 2545.17, -2753.15, -10079.56, -6863.84, -3799.66, -5984.68, 13458.25, 167804.98, 0.000, 0.000, 0.000, 19:33:03.875
236, 2618.42, -2316.02, -10077.48, -6810.11, -3775.88, -5981.35, 13458.01, 167803.30, 0.000, 0.000, 0.000, 19:33:03.875
237, 2656.08, -1727.88, -10060.16, -6833.17, -3819.11, -6036.63, 13479.51, 167863.73, 0.000, 0.000, 0.000, 19:33:03.875
238, 2608.65, -1872.32, -10049.99, -6900.50, -3862.78, -6069.71, 13491.62, 167903.14, 0.000, 0.000, 0.000, 19:33:03.875
239, 2533.99, -2521.08, -10058.98, -6930.56, -3852.39, -6036.45, 13476.40, 167869.34, 0.000, 0.000, 0.000, 19:33:03.875
240, 2538.42, -2753.13, -10073.35, -6881.57, -3799.82, -5979.27, 13452.33, 167807.86, -0.086, 0.984, -0.074, 19:33:03.876
241, 2618.31, -2325.18, -10070.29, -6817.26, -3774.29, -5974.64, 13450.97, 167805.38, 0.000, 0.000, 0.000, 19:33:03.876
242, 2659.30, -1728.35, -10056.03, -6832.17, -3819.94, -6033.90, 13475.75, 167869.27, 0.000, 0.000, 0.000, 19:33:03.876
243, 2610.80, -1864.65, -10047.02, -6901.66, -3876.64, -6078.15, 13489.30, 167910.64, 0.000, 0.000, 0.000, 19:33:03.876
244, 2539.11, -2518.77, -10055.07, -6927.14, -3877.04, -6053.17, 13473.21, 167876.61, 0.000, 0.000, 0.000, 19:33:03.876
245, 2542.98, -2753.49, -10070.06, -6880.11, -3824.18, -5998.52, 13449.51, 167815.70, 0.000, 0.000, 0.000, 19:33:03.876
246, 2621.48, -2321.50, -10068.19, -6822.85, -3791.46, -5992.48, 13449.07, 167814.02, 0.000, 0.000, 0.000, 19:33:03.876
247, 2662.41, -1729.27, -10050.17, -6839.39, -3836.27, -6050.33, 13470.03, 167874.14, 0.000, 0.000, 0.000, 19:33:03.876
248, 2611.47, -1871.67, -10041.10, -6907.40, -3885.65, -6088.66, 13483.64, 167915.66, 0.000, 0.000, 0.000, 19:33:03.876
249, 2539.45, -2518.46, -10048.81, -6933.71, -3877.74, -6058.28, 13467.28, 167881.59, 0.000, 0.000, 0.000, 19:33:03.877
250, 2540.72, -2754.45, -10063.47, -6885.63, -3819.04, -5998.81, 13443.21, 167820.22, -0.088, 0.986, -0.070, 19:33:03.877
251, 2617.61, -2330.88, -10063.56, -6823.12, -3788.26, -5989.17, 13444.55, 167819.78, 0.000, 0.000, 0.000, 19:33:03.877
252, 2654.29, -1733.24, -10047.38, -6838.69, -3832.36, -6046.17, 13466.88, 167880.80, 0.000, 0.000, 0.000, 19:33:03.877
253, 2600.58, -1874.10, -10039.35, -6906.26, -3884.42, -6087.85, 13481.34, 167923.17, 0.000, 0.000, 0.000, 19:33:03.877
254, 2523.56, -2528.09, -10047.96, -6931.14, -3874.03, -6056.36, 13465.99, 167889.72, 0.000, 0.000, 0.000, 19:33:03.877
255, 2520.83, -2757.65, -10061.79, -6886.21, -3818.04, -5998.47, 13440.55, 167826.45, 0.000, 0.000, 0.000, 19:33:03.877
0, 2600.20, -2333.95, -10060.65, -6830.27, -3790.63, -5989.15, 13440.06, 167823.83, 0.000, 0.000, 0.000, 19:33:03.877
1, 2639.16, -1730.18, -10045.25, -6847.70, -3834.40, -6044.49, 13463.21, 167885.64, 0.000, 0.000, 0.000, 19:33:03.877
2, 2588.24, -1858.77, -10034.61, -6913.82, -3888.62, -6084.39, 13475.33, 167925.92, 0.000, 0.000, 0.000, 19:33:03.877
3, 2519.80, -2509.36, -10044.56, -6941.58, -3883.39, -6053.90, 13461.58, 167894.16, 0.000, 0.000, 0.000, 19:33:03.878
4, 2524.85, -2748.06, -10059.18, -6899.47, -3828.41, -5996.48, 13437.22, 167831.86, -0.094, 0.984, -0.070, 19:33:03.878
5, 2601.99, -2324.89, -10058.69, -6844.48, -3799.75, -5988.84, 13437.26, 167829.52, 0.000, 0.000, 0.000, 19:33:03.878
6, 2644.30, -1725.82, -10041.70, -6857.94, -3840.52, -6038.75, 13459.06, 167889.92, 0.000, 0.000, 0.000, 19:33:03.878
7, 2600.65, -1854.68, -10029.41, -6916.64, -3887.68, -6072.21, 13470.14, 167929.17, 0.000, 0.000, 0.000, 19:33:03.878
8, 2528.25, -2498.46, -10039.87, -6940.46, -3879.28, -6038.84, 13457.27, 167898.78, 0.000, 0.000, 0.000, 19:33:03.878
9, 2527.02, -2738.69, -10053.84, -6893.97, -3830.93, -5983.41, 13432.12, 167836.20, 0.000, 0.000, 0.000, 19:33:03.878
10, 2610.53, -2316.76, -10053.59, -6827.94, -3805.09, -5971.42, 13432.33, 167834.08, 0.000, 0.000, 0.000, 19:33:03.878
11, 2653.06, -1713.93, -10036.80, -6838.40, -3844.52, -6020.58, 13454.21, 167894.72, 0.000, 0.000, 0.000, 19:33:03.878
12, 2600.98, -1836.08, -10026.97, -6905.48, -3893.99, -6059.54, 13467.93, 167936.94, 0.000, 0.000, 0.000, 19:33:03.879
13, 2527.02, -2483.19, -10036.96, -6932.24, -3885.45, -6031.08, 13454.99, 167906.81, 0.000, 0.000, 0.000, 19:33:03.879
14, 2530.15, -2738.45, -10052.18, -6881.70, -3828.16, -5974.17, 13431.36, 167845.70, -0.090, 0.980, -0.068, 19:33:03.879
15, 2608.43, -2327.17, -10050.89, -6821.91, -3802.34, -5971.65, 13430.18, 167841.86, 0.000, 0.000, 0.000, 19:33:03.879
16, 2647.03, -1723.59, -10033.00, -6839.28, -3845.51, -6032.20, 13450.63, 167900.83, 0.000, 0.000, 0.000, 19:33:03.879
17, 2605.39, -1836.46, -10021.94, -6900.77, -3895.62, -6070.73, 13463.33, 167942.13, 0.000, 0.000, 0.000, 19:33:03.879
18, 2532.83, -2485.07, -10031.13, -6926.69, -3887.42, -6042.17, 13449.33, 167910.97, 0.000, 0.000, 0.000, 19:33:03.879
19, 2533.84, -2742.54, -10047.02, -6875.42, -3829.95, -5983.61, 13426.22, 167849.95, 0.000, 0.000, 0.000, 19:33:03.880
20, 2613.90, -2326.57, -10045.37, -6812.36, -3797.70, -5973.93, 13424.43, 167845.19, 0.000, 0.000, 0.000, 19:33:03.880
21, 2650.49, -1730.34, -10027.95, -6831.79, -3839.60, -6031.35, 13444.89, 167904.00, 0.000, 0.000, 0.000, 19:33:03.880
22, 2604.89, -1852.40, -10017.05, -6900.85, -3894.28, -6071.54, 13457.09, 167944.66, 0.000, 0.000, 0.000, 19:33:03.880
23, 2536.65, -2492.51, -10026.59, -6925.98, -3886.90, -6040.69, 13443.63, 167913.92, -0.090, 0.980, -0.072, 19:33:03.880
24, 2530.17, -2746.78, -10043.26, -6880.92, -3834.98, -5985.24, 13420.68, 167852.83, 0.000, 0.000, 0.000, 19:33:03.880
25, 2607.91, -2340.05, -10043.11, -6820.88, -3810.15, -5978.31, 13420.01, 167848.61, 0.000, 0.000, 0.000, 19:33:03.880
26, 2651.86, -1730.43, -10026.97, -6835.07, -3848.79, -6029.65, 13442.16, 167908.63, 0.000, 0.000, 0.000, 19:33:03.880
27, 2605.01, -1842.52, -10015.53, -6906.96, -3899.02, -6068.52, 13454.52, 167949.42, 0.000, 0.000, 0.000, 19:33:03.881
28, 2530.57, -2489.34, -10024.18, -6938.70, -3893.76, -6040.02, 13440.46, 167918.44, 0.000, 0.000, 0.000, 19:33:03.881
29, 2533.46, -2737.95, -10038.64, -6890.08, -3832.01, -5974.67, 13415.65, 167855.53, 0.000, 0.000, 0.000, 19:33:03.881
30, 2613.79, -2334.24, -10037.50, -6825.08, -3801.05, -5962.53, 13413.97, 167850.23, 0.000, 0.000, 0.000, 19:33:03.881
31, 2657.24, -1720.41, -10022.54, -6838.40, -3842.98, -6016.96, 13437.29, 167911.50, 0.000, 0.000, 0.000, 19:33:03.881
32, 2615.40, -1819.39, -10011.48, -6903.58, -3897.29, -6054.69, 13450.47, 167953.55, 0.000, 0.000, 0.000, 19:33:03.881
33, 2546.04, -2467.21, -10019.44, -6930.16, -3893.92, -6027.06, 13436.10, 167922.64, -0.092, 0.980, -0.076, 19:33:03.881
34, 2546.11, -2727.18, -10035.20, -6880.22, -3837.95, -5968.00, 13412.75, 167861.55, 0.000, 0.000, 0.000, 19:33:03.882
35, 2618.44, -2327.60, -10035.26, -6824.70, -3815.13, -5969.61, 13411.90, 167857.22, 0.000, 0.000, 0.000, 19:33:03.882
36, 2656.39, -1719.85, -10018.63, -6842.43, -3860.12, -6031.10, 13433.44, 167916.98, 0.000, 0.000, 0.000, 19:33:03.882
37, 2607.62, -1816.86, -10008.49, -6911.09, -3913.72, -6077.35, 13447.73, 167960.38, 0.000, 0.000, 0.000, 19:33:03.882
38, 2527.65, -2464.17, -10018.03, -6949.36, -3910.53, -6059.07, 13434.92, 167931.13, 0.000, 0.000, 0.000, 19:33:03.882
39, 2518.51, -2732.39, -10030.46, -6909.71, -3859.39, -6003.92, 13407.89, 167866.42, 0.000, 0.000, 0.000, 19:33:03.882
40, 2594.34, -2331.22, -10026.59, -6846.92, -3826.57, -5994.20, 13403.29, 167857.92, 0.000, 0.000, 0.000, 19:33:03.883
41, 2636.63, -1719.32, -10012.17, -6859.68, -3861.98, -6049.50, 13427.25, 167919.84, 0.000, 0.000, 0.000, 19:33:03.883
42, 2591.64, -1819.52, -10002.79, -6925.78, -3910.97, -6087.56, 13442.45, 167964.22, 0.000, 0.000, 0.000, 19:33:03.883
43, 2516.90, -2469.76, -10010.21, -6951.88, -3900.85, -6056.14, 13427.90, 167933.33, -0.092, 0.978, -0.076, 19:33:03.883
44, 2516.00, -2732.12, -10024.87, -6902.44, -3841.64, -5995.27, 13403.00, 167870.42, 0.000, 0.000, 0.000, 19:33:03.883
45, 2597.25, -2348.65, -10025.56, -6836.55, -3808.54, -5982.65, 13402.33, 167865.23, 0.000, 0.000, 0.000, 19:33:03.883
46, 2640.55, -1728.73, -10010.59, -6844.71, -3840.83, -6030.75, 13425.28, 167925.55, 0.000, 0.000, 0.000, 19:33:03.883
47, 2594.30, -1810.98, -9999.34, -6909.17, -3890.75, -6067.52, 13438.32, 167967.78, 0.000, 0.000, 0.000, 19:33:03.884
48, 2518.42, -2465.15, -10007.37, -6937.91, -3884.87, -6037.76, 13423.99, 167937.13, 0.000, 0.000, 0.000, 19:33:03.884
49, 2521.95, -2724.14, -10022.61, -6889.03, -3827.00, -5973.59, 13399.78, 167874.48, 0.000, 0.000, 0.000, 19:33:03.884
50, 2605.03, -2338.93, -10021.96, -6824.84, -3792.64, -5956.31, 13397.77, 167867.58, 0.000, 0.000, 0.000, 19:33:03.884
51, 2652.26, -1725.20, -10005.89, -6833.98, -3826.62, -6002.87, 13419.72, 167926.86, 0.000, 0.000, 0.000, 19:33:03.885
52, 2612.07, -1814.36, -9994.05, -6897.57, -3875.21, -6042.08, 13432.44, 167969.02, 0.000, 0.000, 0.000, 19:33:03.885
53, 2540.77, -2464.66, -10002.05, -6924.28, -3873.22, -6021.76, 13418.29, 167938.63, -0.090, 0.986, -0.074, 19:33:03.885
54, 2541.28, -2725.64, -10017.40, -6875.20, -3820.52, -5968.99, 13393.86, 167875.66, 0.000, 0.000, 0.000, 19:33:03.885
55, 2620.94, -2337.08, -10017.67, -6810.80, -3791.44, -5962.64, 13392.36, 167869.38, 0.000, 0.000, 0.000, 19:33:03.885
56, 2658.90, -1723.48, -10000.80, -6823.23, -3840.05, -6023.66, 13412.79, 167927.27, 0.000, 0.000, 0.000, 19:33:03.885
57, 2614.33, -1801.86, -9991.03, -6890.71, -3896.62, -6071.16, 13427.47, 167971.66, 0.000, 0.000, 0.000, 19:33:03.885
58, 2539.74, -2442.51, -9998.34, -6921.62, -3893.36, -6045.61, 13413.13, 167941.53, 0.000, 0.000, 0.000, 19:33:03.885
59, 2531.74, -2717.73, -10015.10, -6877.34, -3837.06, -5990.58, 13390.21, 167880.55, 0.000, 0.000, 0.000, 19:33:03.885
60, 2601.39, -2335.89, -10017.40, -6819.65, -3805.92, -5982.53, 13390.26, 167875.77, 0.000, 0.000, 0.000, 19:33:03.885
61, 2639.92, -1723.27, -10002.65, -6837.53, -3848.95, -6042.37, 13413.26, 167936.20, 0.000, 0.000, 0.000, 19:33:03.886
62, 2596.94, -1802.27, -9991.65, -6903.34, -3900.09, -6083.81, 13427.65, 167980.58, 0.000, 0.000, 0.000, 19:33:03.886
63, 2522.37, -2444.36, -9998.23, -6933.76, -3895.51, -6058.60, 13413.01, 167950.39, -0.090, 0.982, -0.076, 19:33:03.886
64, 2516.72, -2719.18, -10011.95, -6891.36, -3841.88, -6001.31, 13387.04, 167886.31, 0.000, 0.000, 0.000, 19:33:03.886
65, 2594.95, -2334.01, -10009.80, -6827.94, -3806.43, -5984.57, 13382.95, 167877.08, 0.000, 0.000, 0.000, 19:33:03.886
66, 2636.97, -1712.99, -9993.64, -6840.15, -3843.20, -6038.19, 13404.63, 167936.36, 0.000, 0.000, 0.000, 19:33:03.886
67, 2596.49, -1786.51, -9983.00, -6902.62, -3890.75, -6071.23, 13419.67, 167981.75, 0.000, 0.000, 0.000, 19:33:03.886
68, 2523.49, -2432.05, -9990.63, -6931.12, -3878.30, -6034.84, 13406.51, 167953.33, 0.000, 0.000, 0.000, 19:33:03.886
69, 2517.39, -2715.38, -10005.47, -6886.44, -3822.66, -5971.13, 13381.65, 167890.30, 0.000, 0.000, 0.000, 19:33:03.886
70, 2598.21, -2338.57, -10007.86, -6821.24, -3789.56, -5956.05, 13381.74, 167884.91, 0.000, 0.000, 0.000, 19:33:03.886
71, 2641.57, -1722.81, -9993.11, -6835.65, -3830.73, -6012.73, 13404.59, 167945.02, 0.000, 0.000, 0.000, 19:33:03.886
72, 2596.85, -1798.96, -9981.22, -6901.75, -3881.85, -6054.66, 13418.11, 167988.84, -0.094, 0.986, -0.076, 19:33:03.887
73, 2524.32, -2442.96, -9988.95, -6927.86, -3868.39, -6021.00, 13405.08, 167960.80, 0.000, 0.000, 0.000, 19:33:03.887
74, 2522.80, -2726.38, -10003.92, -6881.34, -3816.60, -5969.90, 13380.29, 167897.73, 0.000, 0.000, 0.000, 19:33:03.887
75, 2600.47, -2351.94, -10004.10, -6819.20, -3795.19, -5969.48, 13377.61, 167889.38, 0.000, 0.000, 0.000, 19:33:04.354
76, 2650.43, -1723.10, -9988.37, -6823.16, -3837.15, -6026.54, 13399.51, 167948.34, 0.000, 0.000, 0.000, 19:33:04.354
77, 2618.82, -1776.61, -9977.73, -6878.21, -3884.87, -6066.64, 13414.80, 167993.88, 0.000, 0.000, 0.000, 19:33:04.354
78, 2550.24, -2417.01, -9985.69, -6906.89, -3882.54, -6042.93, 13401.93, 167966.22, 0.000, 0.000, 0.000, 19:33:04.354
79, 2547.54, -2704.99, -9998.16, -6860.93, -3831.65, -5988.14, 13374.25, 167900.31, 0.000, 0.000, 0.000, 19:33:04.355
80, 2625.21, -2323.73, -9998.63, -6796.72, -3797.99, -5975.22, 13371.95, 167891.95, 0.000, 0.000, 0.000, 19:33:04.355
81, 2669.65, -1700.83, -9984.19, -6808.39, -3834.69, -6029.58, 13395.13, 167952.30, 0.000, 0.000, 0.000, 19:33:04.355
82, 2624.54, -1766.88, -9972.61, -6879.55, -3887.71, -6073.48, 13409.28, 167996.95, -0.096, 0.986, -0.076, 19:33:04.355
83, 2544.86, -2409.38, -9980.70, -6919.45, -3885.56, -6048.54, 13396.74, 167969.63, 0.000, 0.000, 0.000, 19:33:04.355
84, 2534.64, -2700.96, -9996.42, -6881.77, -3827.76, -5985.44, 13372.69, 167907.22, 0.000, 0.000, 0.000, 19:33:04.355
85, 2605.63, -2324.47, -9996.64, -6822.38, -3790.32, -5969.73, 13369.87, 167898.09, 0.000, 0.000, 0.000, 19:33:04.355
86, 2654.49, -1702.13, -9981.69, -6829.89, -3826.08, -6018.59, 13392.76, 167957.97, 0.000, 0.000, 0.000, 19:33:04.355
87, 2612.76, -1769.97, -9970.55, -6896.74, -3879.59, -6060.43, 13407.83, 168003.81, 0.000, 0.000, 0.000, 19:33:04.356
88, 2534.17, -2415.69, -9978.15, -6930.52, -3876.06, -6035.60, 13394.95, 167976.42, 0.000, 0.000, 0.000, 19:33:04.356
89, 2528.72, -2703.38, -9993.49, -6886.37, -3822.57, -5975.16, 13370.32, 167913.52, 0.000, 0.000, 0.000, 19:33:04.356
90, 2610.04, -2337.25, -9992.64, -6822.80, -3792.11, -5963.42, 13366.21, 167903.02, 0.000, 0.000, 0.000, 19:33:04.356
91, 2656.86, -1716.52, -9977.06, -6830.13, -3829.28, -6016.37, 13388.29, 167961.78, 0.000, 0.000, 0.000, 19:33:04.356
92, 2613.63, -1778.62, -9964.54, -6897.50, -3884.08, -6059.58, 13401.99, 168006.28, -0.094, 0.984, -0.076, 19:33:04.356
93, 2534.98, -2425.97, -9971.74, -6933.27, -3886.39, -6039.13, 13388.83, 167978.73, 0.000, 0.000, 0.000, 19:33:04.356
94, 2527.56, -2716.65, -9988.01, -6894.46, -3834.62, -5985.89, 13365.02, 167916.53, 0.000, 0.000, 0.000, 19:33:04.356
95, 2598.70, -2357.80, -9988.91, -6835.01, -3803.42, -5979.56, 13362.25, 167906.98, 0.000, 0.000, 0.000, 19:33:04.356
96, 2641.44, -1729.00, -9971.31, -6842.05, -3844.52, -6035.89, 13381.56, 167963.03, 0.000, 0.000, 0.000, 19:33:04.357
97, 2603.26, -1770.44, -9961.41, -6903.87, -3896.38, -6083.14, 13397.95, 168010.23, 0.000, 0.000, 0.000, 19:33:04.357
98, 2524.27, -2424.09, -9969.71, -6937.20, -3897.41, -6067.54, 13385.81, 167984.00, 0.000, 0.000, 0.000, 19:33:04.357
99, 2517.54, -2723.83, -9984.95, -6892.63, -3845.93, -6011.26, 13360.58, 167920.16, 0.000, 0.000, 0.000, 19:33:04.357
100, 2600.83, -2370.72, -9986.78, -6820.70, -3808.09, -5995.27, 13358.16, 167910.56, 0.000, 0.000, 0.000, 19:33:04.357
101, 2647.79, -1737.89, -9972.79, -6827.94, -3847.99, -6049.48, 13380.85, 167969.70, 0.000, 0.000, 0.000, 19:33:04.357
102, 2608.81, -1769.59, -9961.05, -6891.96, -3903.91, -6092.88, 13395.33, 168015.22, -0.096, 0.982, -0.076, 19:33:04.357
103, 2533.21, -2420.40, -9969.21, -6924.37, -3901.56, -6067.92, 13383.20, 167989.11, 0.000, 0.000, 0.000, 19:33:04.357
104, 2529.32, -2721.93, -9986.27, -6879.33, -3839.07, -6002.65, 13359.93, 167927.16, 0.000, 0.000, 0.000, 19:33:04.357
105, 2610.08, -2370.72, -9985.31, -6811.60, -3795.48, -5981.59, 13354.72, 167914.61, 0.000, 0.000, 0.000, 19:33:04.358
106, 2650.47, -1744.84, -9969.17, -6825.40, -3833.08, -6034.17, 13375.08, 167971.23, 0.000, 0.000, 0.000, 19:33:04.358
107, 2613.34, -1769.54, -9958.66, -6893.21, -3883.79, -6072.50, 13391.18, 168018.38, 0.000, 0.000, 0.000, 19:33:04.358
108, 2536.30, -2419.40, -9967.56, -6932.68, -3882.36, -6047.20, 13380.16, 167993.56, 0.000, 0.000, 0.000, 19:33:04.358
109, 2525.72, -2715.07, -9982.69, -6893.72, -3829.70, -5986.29, 13354.97, 167929.97, 0.000, 0.000, 0.000, 19:33:04.359
110, 2610.35, -2352.88, -9983.05, -6828.59, -3793.43, -5965.26, 13351.21, 167918.59, 0.000, 0.000, 0.000, 19:33:04.359
111, 2662.16, -1722.58, -9968.63, -6831.90, -3827.80, -6014.76, 13374.01, 167977.52, 0.000, 0.000, 0.000, 19:33:04.359
112, 2623.87, -1762.61, -9957.03, -6894.71, -3877.04, -6053.90, 13389.48, 168024.45, -0.094, 0.982, -0.082, 19:33:04.359
113, 2542.87, -2406.43, -9963.42, -6931.97, -3873.13, -6026.77, 13376.62, 167998.19, 0.000, 0.000, 0.000, 19:33:04.359
114, 2522.66, -2710.69, -9979.43, -6898.33, -3820.67, -5968.94, 13352.19, 167935.20, 0.000, 0.000, 0.000, 19:33:04.359
115, 2592.82, -2364.79, -9980.43, -6837.67, -3780.78, -5953.16, 13348.62, 167923.80, 0.000, 0.000, 0.000, 19:33:04.359
116, 2633.33, -1737.00, -9965.82, -6844.37, -3812.51, -6004.04, 13370.92, 167982.09, 0.000, 0.000, 0.000, 19:33:04.360
117, 2594.21, -1766.44, -9957.30, -6907.60, -3867.77, -6055.56, 13389.32, 168031.88, 0.000, 0.000, 0.000, 19:33:04.360
118, 2520.45, -2410.64, -9963.16, -6939.50, -3877.51, -6047.53, 13375.53, 168004.78, 0.000, 0.000, 0.000, 19:33:04.360
119, 2514.75, -2710.08, -9977.17, -6897.01, -3832.59, -6002.81, 13349.06, 167939.69, 0.000, 0.000, 0.000, 19:33:04.360
120, 2599.35, -2357.80, -9979.07, -6829.06, -3801.20, -5995.07, 13346.20, 167928.69, 0.000, 0.000, 0.000, 19:33:04.360
121, 2651.65, -1726.25, -9965.17, -6831.65, -3837.50, -6050.51, 13369.05, 167987.56, -0.092, 0.978, -0.078, 19:33:04.360
122, 2619.11, -1756.33, -9950.91, -6888.49, -3891.71, -6096.10, 13381.92, 168032.05, 0.000, 0.000, 0.000, 19:33:04.360
123, 2547.63, -2399.26, -9954.37, -6917.17, -3882.81, -6068.86, 13366.41, 168003.27, 0.000, 0.000, 0.000, 19:33:04.361
124, 2536.23, -2704.45, -9972.52, -6876.38, -3830.40, -6009.96, 13343.83, 167941.95, 0.000, 0.000, 0.000, 19:33:04.361
125, 2613.90, -2367.81, -9977.30, -6811.94, -3797.23, -5994.42, 13343.12, 167932.73, 0.000, 0.000, 0.000, 19:33:04.361
126, 2664.35, -1741.40, -9962.71, -6820.12, -3834.31, -6044.69, 13364.78, 167989.98, 0.000, 0.000, 0.000, 19:33:04.362
127, 2631.18, -1754.52, -9949.14, -6882.93, -3884.71, -6084.50, 13378.43, 168035.17, 0.000, 0.000, 0.000, 19:33:04.362
128, 2558.00, -2395.95, -9955.62, -6916.72, -3879.23, -6056.67, 13366.03, 168009.55, 0.000, 0.000, 0.000, 19:33:04.362
129, 2542.62, -2713.93, -9971.58, -6881.41, -3826.71, -5996.39, 13341.55, 167946.22, 0.000, 0.000, 0.000, 19:33:04.363
130, 2616.29, -2380.71, -9974.31, -6819.76, -3791.75, -5976.23, 13338.76, 167934.64, 0.000, 0.000, 0.000, 19:33:04.363
131, 2661.09, -1747.88, -9959.98, -6829.91, -3829.46, -6025.69, 13360.82, 167992.27, -0.090, 0.980, -0.078, 19:33:04.363
132, 2632.50, -1743.15, -9949.07, -6891.65, -3874.18, -6057.90, 13377.63, 168040.78, 0.000, 0.000, 0.000, 19:33:04.363
133, 2556.95, -2389.67, -9955.96, -6924.95, -3868.22, -6028.42, 13365.92, 168016.11, 0.000, 0.000, 0.000, 19:33:04.363
134, 2540.57, -2713.99, -9972.14, -6889.75, -3812.67, -5967.60, 13341.58, 167952.97, 0.000, 0.000, 0.000, 19:33:04.363
135, 2611.69, -2382.14, -9974.53, -6827.21, -3774.40, -5948.00, 13338.65, 167941.08, 0.000, 0.000, 0.000, 19:33:04.364
136, 2653.64, -1744.49, -9958.17, -6835.88, -3808.83, -5998.67, 13358.99, 167996.91, 0.000, 0.000, 0.000, 19:33:04.364
137, 2612.00, -1742.01, -9947.11, -6904.63, -3867.05, -6051.60, 13375.71, 168045.75, 0.000, 0.000, 0.000, 19:33:04.364
138, 2531.76, -2384.57, -9953.54, -6941.20, -3872.82, -6039.46, 13363.91, 168021.41, 0.000, 0.000, 0.000, 19:33:04.364
139, 2515.55, -2708.41, -9967.49, -6902.26, -3829.28, -5994.80, 13337.20, 167956.25, 0.000, 0.000, 0.000, 19:33:04.364
140, 2587.84, -2374.54, -9968.27, -6836.97, -3801.14, -5994.76, 13331.99, 167942.23, 0.000, 0.000, 0.000, 19:33:04.364
141, 2634.26, -1745.98, -9955.18, -6842.34, -3842.87, -6058.66, 13354.88, 168000.75, -0.088, 0.982, -0.078, 19:33:04.365
142, 2602.86, -1749.63, -9942.70, -6900.18, -3898.59, -6111.19, 13370.21, 168048.34, 0.000, 0.000, 0.000, 19:33:04.365
143, 2529.79, -2388.86, -9949.03, -6931.81, -3898.41, -6098.32, 13358.18, 168024.09, 0.000, 0.000, 0.000, 19:33:04.365
144, 2519.06, -2709.90, -9963.60, -6892.41, -3844.77, -6044.83, 13332.10, 167959.45, 0.000, 0.000, 0.000, 19:33:04.365
145, 2595.64, -2378.05, -9963.87, -6826.27, -3804.33, -6024.73, 13326.36, 167944.36, 0.000, 0.000, 0.000, 19:33:04.366
146, 2649.87, -1744.15, -9950.64, -6824.19, -3831.65, -6067.65, 13349.53, 168002.61, 0.000, 0.000, 0.000, 19:33:04.366
147, 2620.18, -1742.18, -9941.54, -6883.78, -3882.07, -6104.75, 13368.67, 168053.80, 0.000, 0.000, 0.000, 19:33:04.366
148, 2541.62, -2391.32, -9947.73, -6922.16, -3885.11, -6081.17, 13356.58, 168029.41, 0.000, 0.000, 0.000, 19:33:04.366
149, 2530.20, -2722.42, -9963.58, -6880.92, -3828.23, -6017.67, 13331.65, 167965.63, 0.000, 0.000, 0.000, 19:33:04.367
150, 2609.59, -2396.84, -9965.39, -6815.47, -3787.88, -5993.02, 13327.05, 167951.14, 0.000, 0.000, 0.000, 19:33:04.367
151, 2659.03, -1763.15, -9951.31, -6822.47, -3823.74, -6041.48, 13348.98, 168007.89, -0.088, 0.982, -0.074, 19:33:04.367
152, 2628.30, -1743.35, -9938.95, -6887.11, -3875.23, -6082.27, 13364.87, 168055.92, 0.000, 0.000, 0.000, 19:33:04.367
153, 2556.82, -2388.84, -9944.76, -6930.02, -3879.01, -6060.16, 13352.78, 168031.64, 0.000, 0.000, 0.000, 19:33:04.368
154, 2548.05, -2718.33, -9961.03, -6890.60, -3823.29, -5995.59, 13328.43, 167968.28, 0.000, 0.000, 0.000, 19:33:04.368
155, 2626.91, -2394.61, -9960.29, -6820.25, -3783.12, -5972.07, 13321.24, 167950.88, 0.000, 0.000, 0.000, 19:33:04.368
156, 2673.11, -1761.18, -9943.82, -6824.08, -3813.45, -6019.82, 13340.73, 168005.16, 0.000, 0.000, 0.000, 19:33:04.369
157, 2634.89, -1746.77, -9933.67, -6887.06, -3862.72, -6064.30, 13358.92, 168055.63, 0.000, 0.000, 0.000, 19:33:04.369
158, 2547.03, -2396.20, -9941.63, -6927.54, -3869.91, -6051.38, 13348.93, 168033.50, 0.000, 0.000, 0.000, 19:33:04.369
159, 2528.00, -2718.02, -9957.70, -6890.39, -3823.51, -6001.69, 13323.94, 167969.69, 0.000, 0.000, 0.000, 19:33:04.369
160, 2592.78, -2405.70, -9961.21, -6829.20, -3790.43, -5992.55, 13320.16, 167955.81, 0.000, 0.000, 0.000, 19:33:04.369
161, 2637.26, -1768.16, -9945.99, -6835.72, -3825.30, -6048.54, 13340.50, 168010.77, -0.084, 0.980, -0.070, 19:33:04.369
162, 2600.51, -1728.84, -9933.36, -6903.16, -3880.22, -6104.64, 13356.24, 168058.98, 0.000, 0.000, 0.000, 19:33:04.369
163, 2524.18, -2368.64, -9939.66, -6936.42, -3884.69, -6092.88, 13345.11, 168036.16, 0.000, 0.000, 0.000, 19:33:04.369
164, 2514.64, -2697.79, -9954.71, -6893.14, -3826.06, -6035.80, 13319.83, 167971.88, 0.000, 0.000, 0.000, 19:33:04.369
165, 2592.62, -2381.18, -9956.50, -6826.24, -3787.01, -6018.59, 13314.73, 167956.23, 0.000, 0.000, 0.000, 19:33:04.370
166, 2641.08, -1748.73, -9943.69, -6828.66, -3818.88, -6066.71, 13337.78, 168013.98, 0.000, 0.000, 0.000, 19:33:04.371
167, 2611.60, -1720.01, -9932.42, -6887.96, -3869.60, -6106.16, 13355.48, 168064.28, 0.000, 0.000, 0.000, 19:33:04.371
168, 2538.02, -2358.94, -9936.47, -6924.19, -3872.98, -6086.38, 13342.61, 168039.92, 0.000, 0.000, 0.000, 19:33:04.371
169, 2524.32, -2705.66, -9952.61, -6891.53, -3822.89, -6027.46, 13318.24, 167976.66, 0.000, 0.000, 0.000, 19:33:04.371
170, 2595.64, -2389.49, -9955.91, -6829.11, -3785.74, -6006.49, 13314.26, 167961.97, -0.090, 0.974, -0.072, 19:33:04.371
171, 2640.93, -1751.35, -9940.33, -6832.01, -3816.16, -6053.05, 13334.11, 168016.45, 0.000, 0.000, 0.000, 19:33:04.372
172, 2611.40, -1719.39, -9926.16, -6888.41, -3865.44, -6092.35, 13348.98, 168064.11, 0.000, 0.000, 0.000, 19:33:04.372
173, 2539.96, -2359.61, -9932.29, -6928.21, -3865.53, -6066.00, 13338.20, 168041.92, 0.000, 0.000, 0.000, 19:33:04.372
174, 2531.42, -2694.64, -9949.72, -6888.16, -3813.10, -5999.79, 13314.91, 167979.48, 0.000, 0.000, 0.000, 19:33:04.372
175, 2609.32, -2386.21, -9952.61, -6821.69, -3775.61, -5975.11, 13310.13, 167963.61, 0.000, 0.000, 0.000, 19:33:04.373
176, 2661.06, -1753.81, -9937.90, -6828.10, -3809.27, -6022.63, 13331.05, 168018.58, 0.000, 0.000, 0.000, 19:33:04.373
177, 2630.76, -1722.22, -9927.46, -6896.27, -3862.54, -6067.98, 13349.76, 168070.06, 0.000, 0.000, 0.000, 19:33:04.373
178, 2550.18, -2362.62, -9933.63, -6941.65, -3870.74, -6057.12, 13338.94, 168048.03, 0.000, 0.000, 0.000, 19:33:04.373
179, 2532.12, -2695.55, -9948.18, -6905.48, -3821.23, -6001.64, 13312.56, 167982.72, 0.000, 0.000, 0.000, 19:33:04.374
180, 2604.27, -2384.60, -9951.80, -6843.59, -3791.84, -5989.06, 13308.32, 167967.30, -0.094, 0.974, -0.076, 19:33:04.374
181, 2653.55, -1750.16, -9938.05, -6847.12, -3827.09, -6041.72, 13329.93, 168023.00, 0.000, 0.000, 0.000, 19:33:04.374
182, 2622.06, -1714.09, -9923.95, -6905.84, -3877.27, -6084.88, 13345.06, 168071.02, 0.000, 0.000, 0.000, 19:33:04.374
183, 2544.34, -2346.73, -9927.62, -6943.61, -3880.22, -6067.56, 13332.30, 168047.42, 0.000, 0.000, 0.000, 19:33:04.375
184, 2527.04, -2692.71, -9944.49, -6904.74, -3827.27, -6009.42, 13308.63, 167984.84, 0.000, 0.000, 0.000, 19:33:04.375
185, 2596.92, -2380.77, -9947.24, -6841.29, -3790.39, -5994.00, 13303.33, 167968.09, 0.000, 0.000, 0.000, 19:33:04.376
186, 2643.23, -1739.95, -9933.56, -6842.70, -3823.69, -6045.57, 13325.17, 168024.11, 0.000, 0.000, 0.000, 19:33:04.376
187, 2609.83, -1700.39, -9921.69, -6901.66, -3879.77, -6094.78, 13342.94, 168075.08, 0.000, 0.000, 0.000, 19:33:04.376
188, 2535.34, -2335.78, -9926.07, -6935.72, -3879.91, -6076.99, 13330.98, 168052.55, 0.000, 0.000, 0.000, 19:33:04.376
189, 2518.66, -2687.33, -9939.87, -6900.99, -3831.31, -6024.58, 13303.78, 167986.34, 0.000, 0.000, 0.000, 19:33:04.376
190, 2596.47, -2374.96, -9944.20, -6835.16, -3793.56, -6003.43, 13300.00, 167971.14, -0.092, 0.974, -0.076, 19:33:04.377
191, 2646.45, -1735.37, -9931.08, -6838.76, -3830.78, -6051.78, 13322.44, 168027.52, 0.000, 0.000, 0.000, 19:33:04.377
192, 2617.52, -1696.52, -9919.86, -6894.28, -3884.87, -6092.19, 13340.97, 168079.50, 0.000, 0.000, 0.000, 19:33:04.377
193, 2542.62, -2327.91, -9924.49, -6929.38, -3888.80, -6070.22, 13329.57, 168057.59, 0.000, 0.000, 0.000, 19:33:04.378
194, 2530.96, -2687.95, -9940.11, -6889.43, -3834.02, -6005.56, 13304.65, 167993.67, 0.000, 0.000, 0.000, 19:33:04.378
195, 2608.58, -2381.35, -9944.60, -6820.63, -3790.19, -5981.71, 13300.81, 167977.89, 0.000, 0.000, 0.000, 19:33:04.378
196, 2654.63, -1746.05, -9930.12, -6825.55, -3826.64, -6033.41, 13321.33, 168032.25, 0.000, 0.000, 0.000, 19:33:04.838
197, 2623.27, -1690.26, -9918.41, -6885.63, -3881.07, -6080.55, 13339.21, 168083.44, 0.000, 0.000, 0.000, 19:33:04.839
198, 2547.07, -2319.93, -9924.49, -6926.51, -3887.88, -6066.17, 13329.33, 168063.13, 0.000, 0.000, 0.000, 19:33:04.839
199, 2524.45, -2685.67, -9940.36, -6899.36, -3844.61, -6019.59, 13303.94, 167998.88, 0.000, 0.000, 0.000, 19:33:04.840
200, 2594.77, -2386.72, -9943.75, -6838.00, -3809.32, -6008.31, 13298.42, 167981.00, -0.090, 0.980, -0.072, 19:33:04.840
201, 2642.96, -1753.70, -9929.36, -6840.68, -3844.86, -6061.88, 13318.89, 168034.94, 0.000, 0.000, 0.000, 19:33:04.841
202, 2604.11, -1704.25, -9914.58, -6908.03, -3901.47, -6113.51, 13333.33, 168082.91, 0.000, 0.000, 0.000, 19:33:04.841
203, 2527.89, -2336.41, -9919.30, -6948.40, -3904.22, -6094.56, 13322.15, 168061.52, 0.000, 0.000, 0.000, 19:33:04.841
204, 2513.81, -2691.60, -9936.47, -6911.96, -3851.56, -6031.17, 13298.57, 167999.02, 0.000, 0.000, 0.000, 19:33:04.842
205, 2591.37, -2394.59, -9941.07, -6840.95, -3811.22, -6006.38, 13294.33, 167982.25, 0.000, 0.000, 0.000, 19:33:04.842
206, 2644.73, -1756.94, -9927.06, -6839.14, -3840.43, -6047.98, 13315.36, 168036.67, 0.000, 0.000, 0.000, 19:33:04.842
207, 2612.23, -1700.92, -9913.09, -6900.65, -3894.93, -6091.77, 13331.25, 168086.39, 0.000, 0.000, 0.000, 19:33:04.843
208, 2535.76, -2329.50, -9916.49, -6939.26, -3900.04, -6074.06, 13319.05, 168064.27, 0.000, 0.000, 0.000, 19:33:04.843
209, 2517.83, -2687.53, -9931.62, -6907.00, -3853.19, -6015.21, 13293.23, 167999.58, 0.000, 0.000, 0.000, 19:33:04.844
210, 2592.40, -2396.96, -9937.72, -6842.56, -3817.28, -5994.67, 13290.21, 167984.06, -0.098, 0.982, -0.076, 19:33:04.845
211, 2640.72, -1761.83, -9924.87, -6845.80, -3852.41, -6049.75, 13312.12, 168039.42, 0.000, 0.000, 0.000, 19:33:04.845
212, 2612.18, -1690.13, -9913.24, -6903.36, -3909.79, -6098.94, 13330.63, 168091.75, 0.000, 0.000, 0.000, 19:33:04.846
213, 2535.34, -2318.84, -9918.41, -6941.36, -3920.50, -6085.91, 13320.39, 168072.02, 0.000, 0.000, 0.000, 19:33:04.846
214, 2519.85, -2684.71, -9931.53, -6903.94, -3867.72, -6027.06, 13293.01, 168005.78, 0.000, 0.000, 0.000, 19:33:04.850
215, 2595.17, -2383.70, -9935.10, -6835.43, -3827.60, -6005.11, 13287.42, 167987.39, 0.000, 0.000, 0.000, 19:33:04.850
216, 2649.15, -1738.05, -9922.52, -6832.95, -3855.25, -6049.70, 13309.86, 168043.19, 0.000, 0.000, 0.000, 19:33:04.851
217, 2616.14, -1682.66, -9908.89, -6893.81, -3907.24, -6095.99, 13326.91, 168094.41, 0.000, 0.000, 0.000, 19:33:04.852
218, 2534.06, -2309.18, -9915.93, -6939.26, -3917.77, -6084.97, 13318.82, 168077.09, 0.000, 0.000, 0.000, 19:33:04.853
219, 2514.91, -2679.77, -9930.86, -6907.65, -3868.57, -6032.49, 13292.81, 168012.33, -0.098, 0.980, -0.074, 19:33:04.855
220, 2590.32, -2397.81, -9933.32, -6836.73, -3829.32, -6014.90, 13285.50, 167992.05, 0.000, 0.000, 0.000, 19:33:04.856
221, 2642.24, -1766.73, -9920.60, -6834.76, -3860.35, -6067.36, 13307.25, 168046.73, 0.000, 0.000, 0.000, 19:33:04.859
222, 2617.59, -1681.05, -9908.51, -6892.29, -3909.92, -6112.44, 13325.68, 168099.22, 0.000, 0.000, 0.000, 19:33:04.860
223, 2543.27, -2310.10, -9913.18, -6932.64, -3915.73, -6096.73, 13315.56, 168079.92, 0.000, 0.000, 0.000, 19:33:04.860
224, 2520.70, -2685.18, -9929.07, -6903.76, -3868.89, -6040.94, 13290.50, 168015.91, 0.000, 0.000, 0.000, 19:33:04.860
225, 2597.68, -2400.47, -9932.13, -6837.49, -3828.09, -6016.64, 13284.02, 167996.00, 0.000, 0.000, 0.000, 19:33:04.860
226, 2650.49, -1766.01, -9918.16, -6836.97, -3860.35, -6064.68, 13304.56, 168049.31, 0.000, 0.000, 0.000, 19:33:04.860
227, 2621.79, -1694.64, -9904.71, -6899.87, -3917.57, -6112.49, 13321.55, 168100.41, 0.000, 0.000, 0.000, 19:33:04.861
228, 2539.56, -2327.64, -9909.74, -6945.65, -3929.75, -6098.90, 13311.49, 168081.09, 0.000, 0.000, 0.000, 19:33:04.861
229, 2520.20, -2683.80, -9925.96, -6908.97, -3873.27, -6035.60, 13286.61, 168017.20, -0.088, 0.978, -0.076, 19:33:04.861
230, 2590.84, -2408.42, -9929.05, -6843.25, -3826.19, -6008.39, 13279.71, 167996.47, 0.000, 0.000, 0.000, 19:33:04.862
231, 2635.52, -1781.46, -9915.70, -6848.78, -3856.39, -6056.54, 13300.58, 168049.89, 0.000, 0.000, 0.000, 19:33:04.862
232, 2604.60, -1698.40, -9903.32, -6910.94, -3912.16, -6106.99, 13318.98, 168102.56, 0.000, 0.000, 0.000, 19:33:04.864
